#isoforms=['exon:trans3:3_exon:trans3:2_exon:trans3:1','exon:trans2:3_exon:trans2:2_exon:trans2:1']	exon_lens=('exon:trans3:3',300),('exon:trans3:2',500),('exon:trans3:1',250),('exon:trans2:3',300),('exon:trans2:2',600),('exon:trans2:1',250)	iters=5000	burn_in=500	lag=10	percent_accept=75.37	proposal_type=drift	counts=(0,0):11,(0,1):1683,(1,0):171,(1,1):1005	assigned_counts=0:282,1:2577	chrom=test1	strand=-	mRNA_starts=3000,3000	mRNA_ends=5299,5299
sampled_psi	log_score
0.1130,0.8870	-20789.94
0.1077,0.8923	-20772.90
0.1077,0.8923	-20779.24
0.0998,0.9002	-20758.09
0.0969,0.9031	-20731.78
0.1050,0.8950	-20751.47
0.1125,0.8875	-20763.04
0.1102,0.8898	-20766.81
0.1115,0.8885	-20783.60
0.0978,0.9022	-20731.73
0.0798,0.9202	-20733.08
0.0955,0.9045	-20747.64
0.1157,0.8843	-20804.53
0.1207,0.8793	-20843.03
0.1094,0.8906	-20775.09
0.1009,0.8991	-20773.30
0.1037,0.8963	-20781.60
0.1107,0.8893	-20775.21
0.0992,0.9008	-20744.94
0.1002,0.8998	-20738.30
0.1026,0.8974	-20744.88
0.1058,0.8942	-20764.34
0.1172,0.8828	-20796.62
0.1052,0.8948	-20783.60
0.0960,0.9040	-20734.10
0.1012,0.8988	-20803.84
0.1135,0.8865	-20790.00
0.1079,0.8921	-20794.03
0.1021,0.8979	-20760.09
0.1019,0.8981	-20779.68
0.0960,0.9040	-20763.24
0.1073,0.8927	-20775.00
0.1082,0.8918	-20840.41
0.1147,0.8853	-20802.40
0.1051,0.8949	-20760.04
0.0969,0.9031	-20751.86
0.0934,0.9066	-20761.75
0.1003,0.8997	-20727.33
0.1065,0.8935	-20770.75
0.1175,0.8825	-20845.06
0.1227,0.8773	-20792.01
0.0994,0.9006	-20747.13
0.1068,0.8932	-20772.88
0.1070,0.8930	-20762.27
0.1043,0.8957	-20787.99
0.1142,0.8858	-20785.98
0.0961,0.9039	-20781.15
0.0966,0.9034	-20772.05
0.1018,0.8982	-20775.34
0.1138,0.8862	-20808.50
0.1062,0.8938	-20817.60
0.1093,0.8907	-20758.30
0.0991,0.9009	-20762.60
0.1033,0.8967	-20747.07
0.1177,0.8823	-20804.76
0.1224,0.8776	-20803.72
0.1089,0.8911	-20787.67
0.1024,0.8976	-20796.97
0.1030,0.8970	-20738.41
0.1091,0.8909	-20775.07
0.0971,0.9029	-20749.60
0.1244,0.8756	-20794.54
0.0968,0.9032	-20742.96
0.1108,0.8892	-20785.63
0.1113,0.8887	-20804.36
0.1075,0.8925	-20760.19
0.1135,0.8865	-20798.21
0.1133,0.8867	-20810.55
0.0997,0.9003	-20749.31
0.1163,0.8837	-20780.25
0.1125,0.8875	-20802.29
0.1065,0.8935	-20760.11
0.1022,0.8978	-20751.39
0.1046,0.8954	-20755.74
0.1030,0.8970	-20751.39
0.1071,0.8929	-20753.80
0.1233,0.8767	-20811.84
0.0967,0.9033	-20747.44
0.1163,0.8837	-20800.53
0.1079,0.8921	-20770.79
0.0971,0.9029	-20725.08
0.0973,0.9027	-20722.84
0.1018,0.8982	-20744.87
0.1018,0.8982	-20771.00
0.1152,0.8848	-20810.60
0.1031,0.8969	-20781.68
0.1071,0.8929	-20781.36
0.1070,0.8930	-20804.71
0.1121,0.8879	-20777.45
0.0950,0.9050	-20797.32
0.1068,0.8932	-20751.63
0.0866,0.9134	-20755.42
0.1029,0.8971	-20773.04
0.1147,0.8853	-20808.53
0.1132,0.8868	-20800.25
0.1018,0.8982	-20744.87
0.1022,0.8978	-20788.32
0.0988,0.9012	-20778.12
0.1177,0.8823	-20786.64
0.1147,0.8853	-20802.40
0.1128,0.8872	-20783.73
0.1027,0.8973	-20734.05
0.0923,0.9077	-20759.85
0.1158,0.8842	-20822.83
0.1106,0.8894	-20773.11
0.1274,0.8726	-20826.50
0.1041,0.8959	-20760.03
0.1026,0.8974	-20768.74
0.0998,0.9002	-20780.10
0.1067,0.8933	-20755.87
0.1077,0.8923	-20802.50
0.1143,0.8857	-20798.27
0.1027,0.8973	-20753.56
0.0997,0.9003	-20742.71
0.1099,0.8901	-20775.13
0.1081,0.8919	-20781.35
0.1116,0.8884	-20814.73
0.1071,0.8929	-20791.97
0.0940,0.9060	-20743.43
0.1002,0.8998	-20769.03
0.1047,0.8953	-20802.96
0.1012,0.8988	-20812.57
0.1170,0.8830	-20788.49
0.1153,0.8847	-20798.38
0.1037,0.8963	-20798.86
0.1019,0.8981	-20779.69
0.1094,0.8906	-20800.26
0.1108,0.8892	-20764.81
0.1153,0.8847	-20824.87
0.1169,0.8831	-20752.09
0.1074,0.8926	-20747.47
0.1001,0.8999	-20762.46
0.1055,0.8945	-20804.95
0.1115,0.8885	-20775.30
0.1067,0.8933	-20770.75
0.1213,0.8787	-20821.28
0.1054,0.8946	-20747.22
0.1039,0.8961	-20747.10
0.1069,0.8931	-20777.12
0.1053,0.8947	-20747.21
0.1120,0.8880	-20794.00
0.1115,0.8885	-20825.11
0.1133,0.8867	-20771.45
0.1041,0.8959	-20785.86
0.1053,0.8947	-20745.08
0.1042,0.8958	-20788.00
0.1133,0.8867	-20837.30
0.1098,0.8902	-20808.61
0.1090,0.8910	-20762.46
0.0968,0.9032	-20812.20
0.1044,0.8956	-20775.07
0.1020,0.8980	-20788.37
0.1084,0.8916	-20794.00
0.1069,0.8931	-20772.88
0.0967,0.9033	-20765.30
0.1188,0.8812	-20804.94
0.1000,0.9000	-20766.87
0.1084,0.8916	-20764.50
0.1041,0.8959	-20792.31
0.1087,0.8913	-20770.84
0.0900,0.9100	-20721.46
0.1095,0.8905	-20800.25
0.1073,0.8927	-20768.65
0.1120,0.8880	-20794.00
0.0942,0.9058	-20734.35
0.1095,0.8905	-20800.25
0.0940,0.9060	-20738.91
0.1060,0.8940	-20760.08
0.1128,0.8872	-20816.73
0.1093,0.8907	-20772.99
0.1054,0.8946	-20785.72
0.1024,0.8976	-20742.71
0.1003,0.8997	-20771.21
0.1144,0.8856	-20745.07
0.1031,0.8969	-20803.31
0.1140,0.8860	-20787.99
0.1088,0.8912	-20798.19
0.1148,0.8852	-20816.71
0.0960,0.9040	-20769.97
0.1100,0.8900	-20773.05
0.1093,0.8907	-20754.11
0.1154,0.8846	-20802.47
0.1160,0.8840	-20808.62
0.1181,0.8819	-20782.70
0.1063,0.8937	-20777.13
0.1051,0.8949	-20762.19
0.0972,0.9028	-20718.39
0.1122,0.8878	-20765.04
0.1037,0.8963	-20770.82
0.1140,0.8860	-20796.20
0.1048,0.8952	-20777.20
0.0964,0.9036	-20736.29
0.1087,0.8913	-20791.88
0.1005,0.8995	-20733.92
0.1036,0.8964	-20753.56
0.1029,0.8971	-20747.06
0.0907,0.9093	-20742.05
0.0982,0.9018	-20751.67
0.1073,0.8927	-20751.70
0.1070,0.8930	-20764.39
0.0984,0.9016	-20760.50
0.1134,0.8866	-20816.72
0.0934,0.9066	-20773.13
0.0984,0.9016	-20764.94
0.1027,0.8973	-20712.38
0.1125,0.8875	-20771.31
0.0982,0.9018	-20733.93
0.1061,0.8939	-20779.27
0.1149,0.8851	-20790.17
0.1076,0.8924	-20762.31
0.1069,0.8931	-20749.53
0.1034,0.8966	-20773.00
0.0934,0.9066	-20784.47
0.1137,0.8863	-20748.96
0.1100,0.8900	-20798.14
0.1070,0.8930	-20766.51
0.1036,0.8964	-20760.03
0.1167,0.8833	-20824.87
0.1013,0.8987	-20768.87
0.0984,0.9016	-20753.86
0.0971,0.9029	-20785.27
0.1004,0.8996	-20744.88
0.1125,0.8875	-20814.68
0.1193,0.8807	-20827.01
0.1202,0.8798	-20837.05
0.1039,0.8961	-20757.88
0.1086,0.8914	-20791.89
0.1045,0.8955	-20772.92
0.1131,0.8869	-20837.33
0.1095,0.8905	-20821.21
0.1098,0.8902	-20791.87
0.1066,0.8934	-20787.76
0.1062,0.8938	-20798.44
0.1210,0.8790	-20823.22
0.1038,0.8962	-20753.57
0.0981,0.9019	-20784.97
0.1140,0.8860	-20804.40
0.1000,0.9000	-20769.06
0.1069,0.8931	-20800.47
0.0967,0.9033	-20713.92
0.1071,0.8929	-20781.36
0.1092,0.8908	-20791.87
0.1141,0.8859	-20804.41
0.1205,0.8795	-20811.22
0.1047,0.8953	-20785.79
0.1083,0.8917	-20751.84
0.1004,0.8996	-20775.57
0.1145,0.8855	-20806.48
0.1126,0.8874	-20818.81
0.0940,0.9060	-20725.31
0.0944,0.9056	-20750.15
0.1116,0.8884	-20800.21
0.0987,0.9013	-20742.76
0.1086,0.8914	-20777.15
0.1048,0.8952	-20777.20
0.1063,0.8937	-20760.10
0.0961,0.9039	-20781.15
0.1093,0.8907	-20796.06
0.1100,0.8900	-20825.32
0.1028,0.8972	-20757.89
0.0944,0.9056	-20770.50
0.1044,0.8956	-20787.97
0.1029,0.8971	-20777.37
0.1308,0.8692	-20806.72
0.1131,0.8869	-20765.24
0.1018,0.8982	-20762.29
0.1035,0.8965	-20783.78
0.1031,0.8969	-20770.86
0.0960,0.9040	-20754.27
0.1172,0.8828	-20832.96
0.1230,0.8770	-20831.40
0.1152,0.8848	-20798.37
0.1125,0.8875	-20787.83
0.1028,0.8972	-20747.06
0.1116,0.8884	-20767.01
0.1113,0.8887	-20789.82
0.1136,0.8864	-20833.14
0.0924,0.9076	-20739.27
0.1121,0.8879	-20802.28
0.1012,0.8988	-20742.68
0.1021,0.8979	-20734.00
0.1055,0.8945	-20781.43
0.1029,0.8971	-20740.56
0.0970,0.9030	-20769.69
0.1166,0.8834	-20786.40
0.0978,0.9022	-20767.27
0.0984,0.9016	-20787.08
0.1172,0.8828	-20828.93
0.1062,0.8938	-20766.48
0.1078,0.8922	-20743.31
0.1068,0.8932	-20775.00
0.1010,0.8990	-20764.54
0.1072,0.8928	-20764.40
0.1101,0.8899	-20796.05
0.1021,0.8979	-20790.52
0.1095,0.8905	-20817.02
0.1129,0.8871	-20773.44
0.1078,0.8922	-20775.01
0.1058,0.8942	-20779.28
0.1198,0.8802	-20803.13
0.1116,0.8884	-20758.71
0.1124,0.8876	-20765.09
0.1057,0.8943	-20768.61
0.1052,0.8948	-20734.36
0.1067,0.8933	-20766.50
0.1001,0.8999	-20755.87
0.1111,0.8889	-20800.21
0.1182,0.8818	-20820.92
0.0928,0.9072	-20784.77
0.1120,0.8880	-20794.00
0.1093,0.8907	-20789.77
0.1192,0.8808	-20799.00
0.1143,0.8857	-20788.04
0.1064,0.8936	-20806.93
0.0945,0.9055	-20711.69
0.1078,0.8922	-20785.58
0.1184,0.8816	-20810.90
0.1120,0.8880	-20771.23
0.1056,0.8944	-20747.25
0.1045,0.8955	-20785.81
0.1006,0.8994	-20784.30
0.1046,0.8954	-20736.41
0.1019,0.8981	-20764.46
0.1087,0.8913	-20741.39
0.1147,0.8853	-20814.66
0.0991,0.9009	-20755.99
0.1003,0.8997	-20716.36
0.0992,0.9008	-20722.88
0.0964,0.9036	-20740.77
0.0963,0.9037	-20763.16
0.1124,0.8876	-20808.49
0.1065,0.8935	-20757.98
0.1057,0.8943	-20796.37
0.1038,0.8962	-20790.21
0.0894,0.9106	-20737.84
0.1033,0.8967	-20788.14
0.1145,0.8855	-20786.02
0.1164,0.8836	-20816.76
0.1202,0.8798	-20805.21
0.1115,0.8885	-20740.01
0.0937,0.9063	-20738.97
0.0992,0.9008	-20742.73
0.1122,0.8878	-20800.22
0.0957,0.9043	-20749.86
0.1148,0.8852	-20779.94
0.1220,0.8780	-20760.21
0.1006,0.8994	-20744.87
0.1131,0.8869	-20847.62
0.1041,0.8959	-20764.34
0.0980,0.9020	-20773.90
0.1137,0.8863	-20785.91
0.1078,0.8922	-20785.58
0.0978,0.9022	-20756.17
0.0960,0.9040	-20752.04
0.1058,0.8942	-20777.14
0.0983,0.9017	-20804.86
0.1113,0.8887	-20760.73
0.1044,0.8956	-20738.54
0.1059,0.8941	-20766.48
0.1016,0.8984	-20744.86
0.1136,0.8864	-20787.95
0.1002,0.8998	-20727.33
0.1038,0.8962	-20755.72
0.1099,0.8901	-20789.77
0.1096,0.8904	-20800.25
0.1035,0.8965	-20749.24
0.1137,0.8863	-20783.86
0.1111,0.8889	-20760.69
0.1126,0.8874	-20767.21
0.1171,0.8829	-20812.77
0.1013,0.8987	-20744.86
0.1047,0.8953	-20757.89
0.1059,0.8941	-20781.41
0.1019,0.8981	-20777.51
0.0992,0.9008	-20733.91
0.1233,0.8767	-20802.00
0.1079,0.8921	-20785.58
0.1021,0.8979	-20753.57
0.1085,0.8915	-20810.84
0.1048,0.8952	-20783.63
0.1155,0.8845	-20773.97
0.1132,0.8868	-20761.15
0.1182,0.8818	-20768.67
0.1008,0.8992	-20744.87
0.1043,0.8957	-20742.83
0.0913,0.9087	-20746.46
0.1057,0.8943	-20753.66
0.1216,0.8784	-20787.70
0.1010,0.8990	-20733.93
0.1128,0.8872	-20804.36
0.1048,0.8952	-20740.74
0.0915,0.9085	-20776.21
0.1114,0.8886	-20783.60
0.1092,0.8908	-20793.97
0.1047,0.8953	-20762.18
0.1024,0.8976	-20744.88
0.1243,0.8757	-20763.25
0.1093,0.8907	-20806.56
0.1079,0.8921	-20800.36
0.1226,0.8774	-20795.90
0.1030,0.8970	-20762.21
0.1048,0.8952	-20777.20
0.1160,0.8840	-20792.36
0.1122,0.8878	-20818.84
0.1111,0.8889	-20754.46
0.1155,0.8845	-20814.69
0.1043,0.8957	-20772.93
0.1084,0.8916	-20827.73
0.0975,0.9025	-20742.87
0.1089,0.8911	-20762.45
0.1093,0.8907	-20783.48
0.1073,0.8927	-20796.19
0.1151,0.8849	-20804.48
0.1155,0.8845	-20786.18
0.0988,0.9012	-20729.49
0.1011,0.8989	-20753.60
0.1038,0.8962	-20744.94
0.1022,0.8978	-20768.78
0.1045,0.8955	-20777.22
0.1280,0.8720	-20817.08
0.0982,0.9018	-20776.07
0.1038,0.8962	-20751.41
0.0892,0.9108	-20675.18
0.1044,0.8956	-20764.33
0.1200,0.8800	-20781.25
0.1039,0.8961	-20794.50
0.0988,0.9012	-20758.23
0.0993,0.9007	-20729.50
0.1131,0.8869	-20800.25
0.1010,0.8990	-20771.10
0.1035,0.8965	-20777.30
0.1024,0.8976	-20768.76
0.1153,0.8847	-20790.23
0.1056,0.8944	-20747.24
0.1157,0.8843	-20814.70
0.0958,0.9042	-20765.53
0.0990,0.9010	-20778.09
0.1179,0.8821	-20810.83
0.1228,0.8772	-20833.33
0.1013,0.8987	-20764.51
0.1184,0.8816	-20796.84
0.0948,0.9052	-20693.63
0.1050,0.8950	-20745.04
0.1120,0.8880	-20754.67
0.1049,0.8951	-20742.89
0.0963,0.9037	-20772.12
0.1113,0.8887	-20769.04
0.1163,0.8837	-20776.18
0.1077,0.8923	-20762.32
0.1094,0.8906	-20770.90
0.1076,0.8924	-20751.74
0.0960,0.9040	-20774.47
0.1094,0.8906	-20796.06
0.1097,0.8903	-20796.05
0.1065,0.8935	-20753.73
0.1060,0.8940	-20785.67
0.0944,0.9056	-20797.63
0.0952,0.9048	-20767.97
0.1126,0.8874	-20765.14
0.1014,0.8986	-20757.95
0.1048,0.8952	-20802.95
0.1226,0.8774	-20841.18
0.0874,0.9126	-20719.84
0.1186,0.8814	-20782.85
0.0982,0.9018	-20749.46
0.1104,0.8896	-20779.35
0.1193,0.8807	-20805.02
0.1159,0.8841	-20786.25
0.0914,0.9086	-20732.65
0.1019,0.8981	-20768.80
0.1167,0.8833	-20792.50
0.1056,0.8944	-20789.98
0.1022,0.8978	-20779.64
0.1203,0.8797	-20801.25
0.0910,0.9090	-20721.24
0.1058,0.8942	-20775.01
0.1087,0.8913	-20785.57
0.1068,0.8932	-20772.87
0.1120,0.8880	-20791.93
0.1131,0.8869	-20767.30
0.0967,0.9033	-20765.31
0.1018,0.8982	-20768.81
0.1000,0.9000	-20747.09
0.1064,0.8936	-20775.00
0.1031,0.8969	-20773.03
0.0960,0.9040	-20720.64
0.1124,0.8876	-20825.02
0.1052,0.8948	-20745.06
0.1035,0.8965	-20757.88
0.1091,0.8909	-20789.77
0.1075,0.8925	-20777.12
0.1097,0.8903	-20793.96
0.1289,0.8711	-20805.91
0.1068,0.8932	-20760.13
0.0910,0.9090	-20776.46
0.1107,0.8893	-20773.13
0.1083,0.8917	-20777.14
0.1112,0.8888	-20791.89
0.1086,0.8914	-20775.04
0.1103,0.8897	-20756.37
0.1121,0.8879	-20779.52
0.1087,0.8913	-20775.05
0.0962,0.9038	-20754.23
0.1138,0.8862	-20775.66
0.1131,0.8869	-20824.96
0.1121,0.8879	-20762.96
0.1087,0.8913	-20735.07
0.1138,0.8862	-20775.66
0.1165,0.8835	-20822.84
0.1141,0.8859	-20777.77
0.1047,0.8953	-20777.20
0.1009,0.8991	-20757.99
0.1058,0.8942	-20768.61
0.1066,0.8934	-20743.11
0.1076,0.8924	-20770.78
0.1004,0.8996	-20740.49
0.1087,0.8913	-20785.57
0.1132,0.8868	-20767.32
0.0989,0.9011	-20738.33
0.1011,0.8989	-20731.75
0.1141,0.8859	-20794.16
0.1048,0.8952	-20779.34
0.0994,0.9006	-20784.59
0.1166,0.8834	-20784.38
0.1056,0.8944	-20787.84
0.0954,0.9046	-20770.16
0.0986,0.9014	-20758.26
0.0985,0.9015	-20769.35
0.1024,0.8976	-20757.90
0.1159,0.8841	-20794.39
0.1164,0.8836	-20802.58
0.1003,0.8997	-20718.56
0.1042,0.8958	-20751.43
0.1030,0.8970	-20786.02
0.1024,0.8976	-20794.80
0.1092,0.8908	-20812.87
0.1104,0.8896	-20812.74
0.1135,0.8865	-20787.93
0.1159,0.8841	-20802.51
0.1011,0.8989	-20777.64
0.0942,0.9058	-20786.41
0.1105,0.8895	-20768.93
0.1091,0.8909	-20785.57
0.1073,0.8927	-20796.19
0.1103,0.8897	-20825.27
0.1019,0.8981	-20762.27
0.1043,0.8957	-20762.18
0.1056,0.8944	-20753.66
0.1169,0.8831	-20798.59
0.1136,0.8864	-20785.89
0.0960,0.9040	-20799.11
0.1103,0.8897	-20768.90
0.1021,0.8979	-20799.22
0.0989,0.9011	-20751.59
0.1147,0.8853	-20775.84
0.1007,0.8993	-20751.44
0.1205,0.8795	-20831.10
0.1041,0.8959	-20772.95
0.1137,0.8863	-20777.70
0.1048,0.8952	-20764.33
0.1100,0.8900	-20785.59
0.1074,0.8926	-20758.06
0.0977,0.9023	-20765.08
0.1059,0.8941	-20757.94
0.1085,0.8915	-20789.78
0.1157,0.8843	-20798.42
0.1090,0.8910	-20823.38
0.0971,0.9029	-20756.29
0.1016,0.8984	-20751.40
0.1001,0.8999	-20749.28
0.1050,0.8950	-20753.61
0.1101,0.8899	-20825.30
0.1011,0.8989	-20736.13
0.1126,0.8874	-20781.65
0.1125,0.8875	-20796.10
0.1090,0.8910	-20810.78
0.0948,0.9052	-20756.81
0.1037,0.8963	-20772.97
0.1226,0.8774	-20803.78
0.1133,0.8867	-20777.63
0.1144,0.8856	-20777.82
0.0964,0.9036	-20698.25
0.1014,0.8986	-20795.04
0.0986,0.9014	-20758.26
0.1064,0.8936	-20792.02
0.0995,0.9005	-20714.08
0.1130,0.8870	-20767.28
0.1033,0.8967	-20749.23
0.1026,0.8974	-20760.06
0.1046,0.8954	-20779.36
0.1183,0.8817	-20782.77
0.1065,0.8935	-20779.25
0.0917,0.9083	-20748.63
0.1022,0.8978	-20753.56
0.1187,0.8813	-20782.86
0.1190,0.8810	-20804.98
0.1074,0.8926	-20734.77
0.1103,0.8897	-20781.43
0.1079,0.8921	-20791.92
0.1045,0.8955	-20798.70
0.1187,0.8813	-20810.94
0.1158,0.8842	-20788.27
0.0912,0.9088	-20753.39
0.0950,0.9050	-20752.25
0.1028,0.8972	-20794.71
0.0933,0.9067	-20782.25
0.1050,0.8950	-20757.90
0.1069,0.8931	-20775.00
0.1139,0.8861	-20738.74
0.0936,0.9064	-20716.28
0.1061,0.8939	-20770.74
0.1087,0.8913	-20751.91
0.1085,0.8915	-20777.15
0.0978,0.9022	-20740.62
0.1197,0.8803	-20807.09
0.1002,0.8998	-20762.45
0.1025,0.8975	-20775.26
0.1192,0.8808	-20809.00
0.1120,0.8880	-20791.93
0.1033,0.8967	-20742.75
0.1231,0.8769	-20833.37
0.0962,0.9038	-20763.20
0.0949,0.9051	-20750.03
0.1044,0.8956	-20783.68
0.1084,0.8916	-20766.61
0.1093,0.8907	-20783.48
0.1123,0.8877	-20763.01
0.1112,0.8888	-20796.05
0.0971,0.9029	-20729.54
0.1078,0.8922	-20779.24
0.1030,0.8970	-20753.56
0.1129,0.8871	-20777.56
0.1125,0.8875	-20769.24
0.1091,0.8909	-20760.37
0.0996,0.9004	-20742.71
0.1120,0.8880	-20765.02
0.0965,0.9035	-20747.46
0.1027,0.8973	-20766.56
0.1153,0.8847	-20778.00
0.1003,0.8997	-20758.04
0.1019,0.8981	-20753.57
0.1166,0.8834	-20824.87
0.0920,0.9080	-20737.06
0.1031,0.8969	-20786.00
0.1170,0.8830	-20778.40
0.1072,0.8928	-20768.64
0.1066,0.8934	-20796.26
0.1061,0.8939	-20757.95
0.0954,0.9046	-20756.66
0.1097,0.8903	-20773.02
0.1051,0.8949	-20757.90
0.1292,0.8708	-20827.03
0.0958,0.9042	-20740.86
0.1151,0.8849	-20782.04
0.0952,0.9048	-20747.70
0.1028,0.8972	-20788.22
0.1142,0.8858	-20806.46
0.1093,0.8907	-20770.89
0.1139,0.8861	-20757.22
0.1014,0.8986	-20757.96
0.1037,0.8963	-20775.13
0.1042,0.8958	-20751.42
0.1110,0.8890	-20814.77
0.1037,0.8963	-20716.89
0.1135,0.8865	-20810.55
0.0922,0.9078	-20725.60
0.0983,0.9017	-20762.75
0.1065,0.8935	-20783.51
0.1011,0.8989	-20768.90
0.0995,0.9005	-20733.91
0.1004,0.8996	-20764.62
0.0949,0.9051	-20763.56
0.0963,0.9037	-20756.44
0.1128,0.8872	-20814.67
0.1129,0.8871	-20769.32
0.1067,0.8933	-20760.13
0.1125,0.8875	-20779.57
0.1089,0.8911	-20777.16
0.1153,0.8847	-20806.53
0.1286,0.8714	-20780.92
0.1147,0.8853	-20779.91
0.1069,0.8931	-20777.12
0.1090,0.8910	-20747.75
0.1046,0.8954	-20772.91
0.1089,0.8911	-20800.29
0.1123,0.8877	-20754.73
0.1082,0.8918	-20766.59
0.1019,0.8981	-20751.39
0.1047,0.8953	-20783.65
0.1161,0.8839	-20820.81
0.1099,0.8901	-20798.14
0.1080,0.8920	-20770.80
0.1092,0.8908	-20787.67
0.1000,0.9000	-20755.88
0.0944,0.9056	-20745.61
0.1069,0.8931	-20775.00
0.1090,0.8910	-20777.17
0.1116,0.8884	-20767.01
0.1116,0.8884	-20793.98
0.1164,0.8836	-20802.57
0.0872,0.9128	-20703.45
0.0993,0.9007	-20786.83
0.1018,0.8982	-20753.58
0.1026,0.8974	-20777.41
0.1078,0.8922	-20817.29
0.1155,0.8845	-20826.90
0.1004,0.8996	-20742.69
0.1008,0.8992	-20797.38
0.1042,0.8958	-20755.73
0.1106,0.8894	-20768.94
0.1008,0.8992	-20749.25
0.1042,0.8958	-20777.24
0.1144,0.8856	-20788.05
0.0934,0.9066	-20777.66
0.1093,0.8907	-20781.38
0.1124,0.8876	-20787.82
0.1103,0.8897	-20798.13
0.1033,0.8967	-20775.17
0.1086,0.8914	-20783.46
0.0984,0.9016	-20760.51
0.0985,0.9015	-20773.78
0.1113,0.8887	-20820.99
0.1132,0.8868	-20829.07
0.1021,0.8979	-20747.04
0.1155,0.8845	-20806.55
0.0970,0.9030	-20738.46
0.1036,0.8964	-20781.62
0.1003,0.8997	-20771.21
0.1055,0.8945	-20777.16
0.1062,0.8938	-20768.61
0.1086,0.8914	-20804.51
0.1037,0.8963	-20742.78
0.0964,0.9036	-20747.48
0.1131,0.8869	-20794.07
0.1087,0.8913	-20758.22
0.1037,0.8963	-20757.88
0.1067,0.8933	-20804.75
0.1056,0.8944	-20783.56
0.1092,0.8908	-20772.98
0.1085,0.8915	-20762.40
0.1057,0.8943	-20757.93
0.1074,0.8926	-20781.36
0.1086,0.8914	-20787.68
0.1156,0.8844	-20810.62
0.1039,0.8961	-20794.50
0.1238,0.8762	-20849.13
0.1088,0.8912	-20777.16
0.1014,0.8986	-20755.77
0.1146,0.8854	-20783.99
0.1100,0.8900	-20816.96
0.1011,0.8989	-20777.64
0.1060,0.8940	-20760.08
0.1086,0.8914	-20732.95
0.0962,0.9038	-20767.68
0.1136,0.8864	-20755.08
0.1066,0.8934	-20800.51
0.1115,0.8885	-20787.75
0.0991,0.9009	-20718.46
0.1145,0.8855	-20802.39
0.1123,0.8877	-20808.49
0.1018,0.8982	-20755.75
0.1098,0.8902	-20775.12
0.1014,0.8986	-20760.14
0.1021,0.8979	-20786.18
0.0988,0.9012	-20716.23
0.1051,0.8949	-20796.45
0.1026,0.8974	-20747.05
0.1190,0.8810	-20788.95
0.0958,0.9042	-20772.27
0.0944,0.9056	-20711.70
0.1034,0.8966	-20762.20
0.1092,0.8908	-20779.28
0.1154,0.8846	-20790.24
0.1071,0.8929	-20751.67
0.0884,0.9116	-20775.53
0.1049,0.8951	-20745.03
0.1002,0.8998	-20769.04
0.0964,0.9036	-20767.62
0.1024,0.8976	-20736.19
0.1149,0.8851	-20796.29
0.0931,0.9069	-20745.94
0.1140,0.8860	-20755.19
0.1030,0.8970	-20742.73
0.1166,0.8834	-20804.62
0.1093,0.8907	-20772.99
0.0961,0.9039	-20774.43
0.1080,0.8920	-20775.02
0.1013,0.8987	-20764.51
0.1041,0.8959	-20775.10
0.1095,0.8905	-20752.05
0.0979,0.9021	-20736.17
0.0992,0.9008	-20762.59
0.1075,0.8925	-20760.19
0.1056,0.8944	-20762.20
0.1152,0.8848	-20812.64
0.1065,0.8935	-20806.90
0.1041,0.8959	-20751.42
0.1152,0.8848	-20806.52
0.1034,0.8966	-20766.52
0.1009,0.8991	-20777.67
0.1018,0.8982	-20781.89
0.1133,0.8867	-20845.53
0.1052,0.8948	-20772.89
0.1115,0.8885	-20764.93
0.1181,0.8819	-20802.81
0.1017,0.8983	-20744.86
0.1097,0.8903	-20814.90
0.1163,0.8837	-20796.47
0.1048,0.8952	-20770.76
0.1055,0.8945	-20783.57
0.1069,0.8931	-20777.12
0.1060,0.8940	-20817.65
0.0987,0.9013	-20729.49
0.1235,0.8765	-20792.27
0.0987,0.9013	-20751.61
0.1055,0.8945	-20760.06
0.1021,0.8979	-20781.83
0.0995,0.9005	-20780.17
0.1160,0.8840	-20837.05
0.1187,0.8813	-20820.96
0.0939,0.9061	-20768.39
0.0991,0.9009	-20755.98
0.1115,0.8885	-20791.91
0.1059,0.8941	-20753.67
0.1090,0.8910	-20770.86
0.1047,0.8953	-20779.35
0.0980,0.9020	-20798.31
0.1046,0.8954	-20760.03
0.0931,0.9069	-20725.44
0.1148,0.8852	-20784.02
0.1018,0.8982	-20749.22
0.1040,0.8960	-20753.57
0.1073,0.8927	-20775.00
0.0989,0.9011	-20731.70
0.1036,0.8964	-20757.88
0.1025,0.8975	-20792.61
0.0972,0.9028	-20725.07
0.0913,0.9087	-20744.14
0.0985,0.9015	-20751.63
0.1009,0.8991	-20753.62
0.0975,0.9025	-20762.90
0.1101,0.8899	-20789.78
0.0898,0.9102	-20756.26
0.0947,0.9053	-20774.89
0.1015,0.8985	-20753.59
0.1058,0.8942	-20787.82
0.1101,0.8899	-20793.96
0.1177,0.8823	-20792.68
0.0934,0.9066	-20768.59
0.0953,0.9047	-20788.19
0.1105,0.8895	-20775.19
0.0973,0.9027	-20738.43
0.1095,0.8905	-20789.77
0.1104,0.8896	-20762.66
0.1249,0.8751	-20821.99
0.1001,0.8999	-20775.63
0.1158,0.8842	-20810.64
0.1002,0.8998	-20707.58
0.0947,0.9053	-20741.04
0.1079,0.8921	-20781.35
0.1056,0.8944	-20742.97
0.1123,0.8877	-20773.34
0.1028,0.8972	-20740.55
0.0983,0.9017	-20758.31
0.1097,0.8903	-20773.03
0.0993,0.9007	-20778.00
0.1126,0.8874	-20771.33
0.1208,0.8792	-20823.19
0.1028,0.8972	-20770.89
0.1068,0.8932	-20777.12
0.0910,0.9090	-20804.09
0.0966,0.9034	-20754.15
0.1063,0.8937	-20787.78
0.1129,0.8871	-20787.87
0.1090,0.8910	-20777.17
0.1098,0.8902	-20796.05
0.1014,0.8986	-20727.41
0.0996,0.9004	-20740.51
0.1008,0.8992	-20773.33
0.1043,0.8957	-20755.73
0.1052,0.8948	-20770.75
0.1055,0.8945	-20753.64
0.1010,0.8990	-20731.75
0.1080,0.8920	-20770.80
0.0946,0.9054	-20741.06
0.0960,0.9040	-20787.93
0.0973,0.9027	-20760.72
0.1055,0.8945	-20800.68
0.1015,0.8985	-20801.58
0.1032,0.8968	-20764.37
0.0979,0.9021	-20760.60
0.1262,0.8738	-20814.59
0.1121,0.8879	-20794.00
0.1078,0.8922	-20749.66
0.1047,0.8953	-20783.64
0.1151,0.8849	-20759.60
0.1020,0.8980	-20775.32
0.1082,0.8918	-20720.19
0.1040,0.8960	-20777.26
0.1037,0.8963	-20753.56
0.1088,0.8912	-20796.09
0.1129,0.8871	-20781.68
0.1001,0.8999	-20766.85
0.1027,0.8973	-20729.71
0.1179,0.8821	-20796.75
0.0915,0.9085	-20764.76
0.1158,0.8842	-20782.19
0.0981,0.9019	-20762.78
0.1006,0.8994	-20773.35
0.0997,0.9003	-20784.51
0.1041,0.8959	-20751.42
0.1107,0.8893	-20739.78
0.1188,0.8812	-20822.97
0.1116,0.8884	-20798.13
0.1043,0.8957	-20783.68
0.0990,0.9010	-20771.45
0.1073,0.8927	-20747.46
0.1103,0.8897	-20762.64
0.1061,0.8939	-20772.87
0.1134,0.8866	-20792.04
0.1012,0.8988	-20792.91
0.1067,0.8933	-20779.25
0.1182,0.8818	-20768.65
0.1063,0.8937	-20783.52
0.1064,0.8936	-20762.23
0.1033,0.8967	-20762.20
0.0994,0.9006	-20766.96
0.1087,0.8913	-20781.36
0.1102,0.8898	-20802.31
0.1121,0.8879	-20789.87
0.1111,0.8889	-20793.97
0.1105,0.8895	-20756.41
0.1130,0.8870	-20783.76
0.1101,0.8899	-20770.97
0.1069,0.8931	-20779.24
0.0912,0.9088	-20748.79
0.1055,0.8945	-20749.37
0.1136,0.8864	-20773.57
0.1043,0.8957	-20753.58
0.1086,0.8914	-20766.63
0.1020,0.8980	-20736.17
0.1008,0.8992	-20751.43
0.0966,0.9034	-20738.51
0.1140,0.8860	-20773.64
0.1000,0.9000	-20777.84
0.1064,0.8936	-20802.67
0.1062,0.8938	-20787.78
0.1098,0.8902	-20785.59
0.1007,0.8993	-20775.52
0.1063,0.8937	-20762.23
0.1040,0.8960	-20770.80
0.1085,0.8915	-20791.89
0.1035,0.8965	-20792.42
0.1112,0.8888	-20752.40
0.1018,0.8982	-20760.10
0.1125,0.8875	-20781.64
0.1078,0.8922	-20764.44
0.1103,0.8897	-20741.76
0.1086,0.8914	-20766.63
0.1034,0.8966	-20744.92
0.1050,0.8950	-20736.46
0.1026,0.8974	-20753.56
0.1136,0.8864	-20748.91
0.1131,0.8869	-20804.37
0.1094,0.8906	-20796.06
0.1070,0.8930	-20768.63
0.1008,0.8992	-20760.18
0.1048,0.8952	-20762.18
0.0942,0.9058	-20766.03
0.1041,0.8959	-20777.25
0.1250,0.8750	-20831.74
0.1092,0.8908	-20785.57
0.1144,0.8856	-20796.24
0.0979,0.9021	-20749.50
0.1092,0.8908	-20751.99
0.0999,0.9001	-20771.27
0.0968,0.9032	-20776.45
0.1092,0.8908	-20798.17
0.1171,0.8829	-20808.72
0.1043,0.8957	-20798.74
0.1202,0.8798	-20793.25
0.1035,0.8965	-20788.10
0.1010,0.8990	-20731.75
0.1098,0.8902	-20793.96
0.1099,0.8901	-20770.95
0.1073,0.8927	-20762.29
0.1220,0.8780	-20801.65
0.1135,0.8865	-20769.43
0.1047,0.8953	-20755.74
0.1075,0.8925	-20772.89
0.1116,0.8884	-20775.31
0.1143,0.8857	-20781.90
0.1059,0.8941	-20796.35
0.1046,0.8954	-20740.71
0.1075,0.8925	-20749.60
0.1157,0.8843	-20786.22
0.1007,0.8993	-20784.29
0.1046,0.8954	-20760.03
0.1040,0.8960	-20764.34
0.1009,0.8991	-20744.87
0.1016,0.8984	-20733.96
0.1182,0.8818	-20834.98
0.1066,0.8934	-20762.24
0.0970,0.9030	-20736.24
0.0945,0.9055	-20765.94
0.1115,0.8885	-20766.99
0.0961,0.9039	-20754.25
0.1129,0.8871	-20804.36
0.0982,0.9018	-20742.80
0.0951,0.9049	-20774.75
0.1007,0.8993	-20808.38
0.1046,0.8954	-20760.03
0.0979,0.9021	-20789.45
0.1023,0.8977	-20766.59
0.1068,0.8932	-20766.50
0.1117,0.8883	-20781.55
0.0971,0.9029	-20722.85
0.1012,0.8988	-20762.33
0.0975,0.9025	-20758.44
0.0996,0.9004	-20771.33
0.1036,0.8964	-20742.77
0.1135,0.8865	-20781.77
0.0941,0.9059	-20732.10
0.1043,0.8957	-20760.03
0.1146,0.8854	-20792.17
0.1027,0.8973	-20781.73
0.1050,0.8950	-20770.76
0.1029,0.8971	-20768.72
0.1116,0.8884	-20777.39
0.1090,0.8910	-20785.57
0.1162,0.8838	-20818.78
0.1066,0.8934	-20762.25
0.1037,0.8963	-20760.03
0.1069,0.8931	-20762.26
0.0972,0.9028	-20729.53
0.1044,0.8956	-20762.18
0.0955,0.9045	-20803.86
0.1008,0.8992	-20760.19
0.1140,0.8860	-20833.11
0.1107,0.8893	-20760.63
0.1116,0.8884	-20818.88
0.1047,0.8953	-20766.47
0.1041,0.8959	-20744.96
0.1190,0.8810	-20788.97
0.1219,0.8781	-20823.34
0.1113,0.8887	-20791.90
0.1050,0.8950	-20766.47
0.1117,0.8883	-20802.28
0.1097,0.8903	-20775.12
0.1068,0.8932	-20777.12
0.1144,0.8856	-20806.47
0.1149,0.8851	-20757.49
0.1048,0.8952	-20798.65
0.1043,0.8957	-20764.33
0.1001,0.8999	-20769.05
0.1117,0.8883	-20758.74
0.1057,0.8943	-20775.01
0.1191,0.8809	-20831.00
0.1045,0.8955	-20785.81
0.1075,0.8925	-20770.77
0.1057,0.8943	-20753.66
0.1044,0.8956	-20796.56
0.1206,0.8794	-20807.27
0.1004,0.8996	-20766.81
0.1149,0.8851	-20802.42
0.1005,0.8995	-20760.22
0.0991,0.9009	-20725.08
0.0921,0.9079	-20791.95
0.1041,0.8959	-20783.71
0.1103,0.8897	-20785.61
0.1035,0.8965	-20762.20
0.1101,0.8899	-20798.14
0.1009,0.8991	-20733.93
0.1076,0.8924	-20783.47
0.1072,0.8928	-20791.96
0.1005,0.8995	-20760.22
0.1070,0.8930	-20758.02
0.0995,0.9005	-20837.45
0.1185,0.8815	-20810.91
0.1262,0.8738	-20804.90
0.0972,0.9028	-20705.02
0.0891,0.9109	-20740.29
0.1087,0.8913	-20798.20
0.1128,0.8872	-20804.36
0.1048,0.8952	-20796.50
0.1150,0.8850	-20800.39
0.0978,0.9022	-20756.18
0.0998,0.9002	-20791.08
0.1059,0.8941	-20779.27
0.1230,0.8770	-20796.03
0.1095,0.8905	-20785.58
0.0974,0.9026	-20760.69
0.0996,0.9004	-20731.70
0.1069,0.8931	-20764.38
0.1104,0.8896	-20793.96
0.1092,0.8908	-20745.69
0.1061,0.8939	-20796.31
0.1079,0.8921	-20785.58
0.1022,0.8978	-20766.60
0.1057,0.8943	-20802.78
0.1132,0.8868	-20765.26
0.1112,0.8888	-20785.66
0.1109,0.8891	-20771.06
0.1064,0.8936	-20757.98
0.1085,0.8915	-20772.93
0.0996,0.9004	-20751.52
0.1106,0.8894	-20758.51
0.1147,0.8853	-20792.18
0.1124,0.8876	-20802.29
0.0974,0.9026	-20740.66
0.1008,0.8992	-20768.94
0.1082,0.8918	-20766.59
0.1105,0.8895	-20783.53
0.1124,0.8876	-20756.82
0.1085,0.8915	-20798.21
0.0980,0.9020	-20758.35
0.1217,0.8783	-20807.52
0.1006,0.8994	-20751.45
0.1025,0.8975	-20738.37
0.0918,0.9082	-20725.66
0.0975,0.9025	-20760.67
0.1055,0.8945	-20764.33
0.1128,0.8872	-20798.17
0.1101,0.8899	-20806.49
0.1051,0.8949	-20762.19
0.0985,0.9015	-20767.13
0.0996,0.9004	-20760.32
0.0998,0.9002	-20799.89
0.1054,0.8946	-20792.13
0.1162,0.8838	-20759.94
0.1097,0.8903	-20804.43
0.1103,0.8897	-20752.21
0.1058,0.8942	-20751.53
0.1052,0.8948	-20770.75
0.1138,0.8862	-20753.07
0.1176,0.8824	-20780.56
0.1126,0.8874	-20765.14
0.0992,0.9008	-20778.02
0.1084,0.8916	-20789.79
0.1065,0.8935	-20789.89
0.1129,0.8871	-20730.14
0.1088,0.8912	-20756.12
0.1287,0.8713	-20824.95
0.0928,0.9072	-20752.85
0.1100,0.8900	-20816.95
0.0995,0.9005	-20736.11
0.0996,0.9004	-20755.92
0.1177,0.8823	-20794.69
0.1151,0.8849	-20818.75
0.0930,0.9070	-20732.29
0.0877,0.9123	-20726.75
0.1161,0.8839	-20770.05
0.0998,0.9002	-20733.91
0.0920,0.9080	-20746.23
0.1125,0.8875	-20746.51
0.0925,0.9075	-20707.27
0.1011,0.8989	-20755.79
0.1269,0.8731	-20822.50
0.1015,0.8985	-20755.77
0.0966,0.9034	-20749.68
0.1140,0.8860	-20812.61
0.0939,0.9061	-20750.27
0.1073,0.8927	-20762.29
0.1105,0.8895	-20756.41
0.1121,0.8879	-20779.53
0.0988,0.9012	-20716.23
0.1029,0.8971	-20770.88
0.1069,0.8931	-20760.14
0.1082,0.8918	-20781.35
0.1223,0.8777	-20821.44
0.1026,0.8974	-20775.25
0.1145,0.8855	-20779.88
0.1011,0.8989	-20740.50
0.1108,0.8892	-20787.71
0.1061,0.8939	-20749.43
0.1125,0.8875	-20794.03
0.1164,0.8836	-20808.66
0.1081,0.8919	-20739.14
0.0999,0.9001	-20755.89
0.1090,0.8910	-20791.87
0.1016,0.8984	-20779.74
0.1171,0.8829	-20766.31
0.0990,0.9010	-20780.28
0.1078,0.8922	-20777.13
0.1197,0.8803	-20773.19
0.1047,0.8953	-20753.60
0.1115,0.8885	-20796.06
0.1042,0.8958	-20742.82
0.1013,0.8987	-20771.06
0.0997,0.9003	-20722.90
0.1120,0.8880	-20779.51
0.1019,0.8981	-20755.75
0.1136,0.8864	-20757.14
0.0951,0.9049	-20718.44
0.1042,0.8958	-20781.55
0.1036,0.8964	-20757.88
0.1029,0.8971	-20764.38
0.1057,0.8943	-20781.42
0.1090,0.8910	-20785.57
0.1033,0.8967	-20751.39
0.1073,0.8927	-20823.74
0.0983,0.9017	-20725.06
0.1014,0.8986	-20779.78
0.1041,0.8959	-20760.03
0.1064,0.8936	-20768.62
0.1282,0.8718	-20824.80
0.1172,0.8828	-20786.52
0.1094,0.8906	-20766.71
0.1130,0.8870	-20802.30
0.1005,0.8995	-20729.53
0.1091,0.8909	-20789.77
0.1162,0.8838	-20810.66
0.1141,0.8859	-20794.16
0.1089,0.8911	-20751.94
0.1126,0.8874	-20763.08
0.0978,0.9022	-20773.96
0.1078,0.8922	-20779.24
0.1135,0.8865	-20794.11
0.1013,0.8987	-20773.25
0.1118,0.8882	-20793.99
0.1051,0.8949	-20749.34
0.1071,0.8929	-20751.68
0.1148,0.8852	-20798.32
0.1216,0.8784	-20775.86
0.1104,0.8896	-20771.01
0.1088,0.8912	-20770.85
0.1090,0.8910	-20751.95
0.1060,0.8940	-20757.95
0.1115,0.8885	-20789.83
0.1068,0.8932	-20738.90
0.1006,0.8994	-20799.65
0.1022,0.8978	-20755.74
0.1057,0.8943	-20792.10
0.1118,0.8882	-20773.27
0.1062,0.8938	-20783.52
0.1128,0.8872	-20773.43
0.1121,0.8879	-20781.59
0.1011,0.8989	-20788.56
0.1151,0.8849	-20771.84
0.1066,0.8934	-20766.50
0.1196,0.8804	-20789.12
0.1148,0.8852	-20757.47
0.1170,0.8830	-20778.38
0.1152,0.8848	-20747.41
0.1034,0.8966	-20788.12
0.0924,0.9076	-20730.13
0.1088,0.8912	-20770.85
0.1155,0.8845	-20798.40
0.0925,0.9075	-20762.08
0.1091,0.8909	-20793.97
0.1241,0.8759	-20778.81
0.1125,0.8875	-20769.24
0.1193,0.8807	-20801.02
0.1115,0.8885	-20729.64
0.0956,0.9044	-20752.12
0.1133,0.8867	-20792.03
0.1045,0.8955	-20796.56
0.1081,0.8919	-20753.92
0.1066,0.8934	-20772.87
0.1236,0.8764	-20819.73
0.1033,0.8967	-20766.53
0.1110,0.8890	-20781.48
0.0931,0.9069	-20752.74
0.1166,0.8834	-20802.60
0.1090,0.8910	-20798.18
0.1024,0.8976	-20788.29
0.1121,0.8879	-20767.10
0.0954,0.9046	-20774.64
0.1142,0.8858	-20792.12
0.1088,0.8912	-20815.01
0.1075,0.8925	-20791.94
0.1047,0.8953	-20766.47
0.1039,0.8961	-20770.81
0.0912,0.9088	-20698.20
0.1018,0.8982	-20760.11
0.0955,0.9045	-20765.62
0.1064,0.8936	-20775.00
0.0955,0.9045	-20776.88
0.1159,0.8841	-20798.45
0.1041,0.8959	-20762.18
0.1108,0.8892	-20768.97
0.0945,0.9055	-20736.55
0.1054,0.8946	-20785.72
0.1142,0.8858	-20775.74
0.1040,0.8960	-20772.95
0.1178,0.8822	-20828.94
0.1107,0.8893	-20804.38
0.0933,0.9067	-20734.51
0.1026,0.8974	-20736.21
0.1070,0.8930	-20796.22
0.1098,0.8902	-20760.47
0.1061,0.8939	-20789.93
0.1134,0.8866	-20759.14
0.0996,0.9004	-20769.13
0.0996,0.9004	-20775.75
0.1040,0.8960	-20751.41
0.1051,0.8949	-20734.35
0.1084,0.8916	-20779.25
0.1267,0.8733	-20799.27
0.1036,0.8964	-20772.98
0.0950,0.9050	-20745.49
0.1039,0.8961	-20770.80
0.1006,0.8994	-20753.64
0.1209,0.8791	-20823.20
0.1189,0.8811	-20826.99
0.1052,0.8948	-20787.88
0.1054,0.8946	-20755.78
0.1153,0.8847	-20778.00
0.1043,0.8957	-20717.02
0.1079,0.8921	-20762.34
0.1006,0.8994	-20766.78
0.1069,0.8931	-20745.28
0.1024,0.8976	-20747.05
0.1086,0.8914	-20777.15
0.1165,0.8835	-20794.48
0.1098,0.8902	-20779.31
0.0990,0.9010	-20736.12
0.0891,0.9109	-20749.59
0.0948,0.9052	-20736.51
0.1030,0.8970	-20734.08
0.0932,0.9068	-20764.09
0.1076,0.8924	-20747.50
0.1094,0.8906	-20814.94
0.1038,0.8962	-20762.19
0.1202,0.8798	-20793.24
0.0974,0.9026	-20745.11
0.0945,0.9055	-20716.22
0.1266,0.8734	-20805.03
0.1087,0.8913	-20775.05
0.1030,0.8970	-20796.85
0.1094,0.8906	-20773.00
0.1238,0.8762	-20798.27
0.0868,0.9132	-20729.44
0.1167,0.8833	-20818.80
0.1034,0.8966	-20753.56
0.1005,0.8995	-20760.22
0.1065,0.8935	-20766.49
0.1203,0.8797	-20797.25
0.1006,0.8994	-20747.06
0.1154,0.8846	-20784.13
0.1005,0.8995	-20768.99
0.1038,0.8962	-20736.32
0.1046,0.8954	-20747.15
0.1078,0.8922	-20722.18
0.1016,0.8984	-20755.76
0.1131,0.8869	-20849.67
0.1054,0.8946	-20751.50
0.1134,0.8866	-20806.43
0.1101,0.8899	-20787.69
0.1034,0.8966	-20777.32
0.1044,0.8956	-20790.11
0.1069,0.8931	-20798.34
0.1066,0.8934	-20798.38
0.1026,0.8974	-20760.06
0.1038,0.8962	-20744.94
0.1126,0.8874	-20804.36
0.1090,0.8910	-20802.38
0.1118,0.8882	-20777.41
0.1022,0.8978	-20805.70
0.1121,0.8879	-20783.66
0.0944,0.9056	-20761.44
0.1082,0.8918	-20753.93
0.1073,0.8927	-20762.29
0.1004,0.8996	-20773.39
0.1108,0.8892	-20806.46
0.1076,0.8924	-20758.08
0.1050,0.8950	-20736.47
0.1012,0.8988	-20821.29
0.1035,0.8965	-20766.51
0.1004,0.8996	-20758.04
0.0933,0.9067	-20770.88
0.1076,0.8924	-20764.43
0.1012,0.8988	-20803.82
0.0981,0.9019	-20765.00
0.1114,0.8886	-20810.59
0.1075,0.8925	-20785.59
0.0887,0.9113	-20756.73
0.0989,0.9011	-20727.28
0.1005,0.8995	-20740.49
0.1131,0.8869	-20750.83
0.1258,0.8742	-20806.70
0.1111,0.8889	-20771.09
0.0948,0.9052	-20759.07
0.1132,0.8868	-20775.55
0.1137,0.8863	-20748.94
0.1126,0.8874	-20785.77
0.1105,0.8895	-20745.99
0.1004,0.8996	-20740.49
0.0971,0.9029	-20727.31
0.1162,0.8838	-20757.92
0.1093,0.8907	-20785.58
0.1134,0.8866	-20787.93
0.1121,0.8879	-20802.28
0.1115,0.8885	-20798.13
0.1015,0.8985	-20771.03
0.1056,0.8944	-20768.61
0.0980,0.9020	-20720.62
0.1139,0.8861	-20798.25
0.0989,0.9011	-20775.90
0.0974,0.9026	-20785.19
0.0901,0.9099	-20746.86
0.1011,0.8989	-20744.87
0.0998,0.9002	-20740.51
0.1053,0.8947	-20760.05
0.1049,0.8951	-20755.75
0.1002,0.8998	-20793.16
0.0942,0.9058	-20713.97
0.1091,0.8909	-20775.07
0.1064,0.8936	-20745.21
0.1053,0.8947	-20747.21
0.1085,0.8915	-20770.83
0.1089,0.8911	-20756.14
0.1025,0.8975	-20751.39
0.1096,0.8904	-20793.96
0.1091,0.8909	-20789.77
0.0917,0.9083	-20741.75
0.1097,0.8903	-20783.49
0.1033,0.8967	-20749.24
0.1002,0.8998	-20753.67
0.1167,0.8833	-20786.42
0.1176,0.8824	-20786.62
0.1089,0.8911	-20754.04
0.1094,0.8906	-20802.35
0.1059,0.8941	-20777.14
0.0958,0.9042	-20720.65
0.1105,0.8895	-20798.13
0.0969,0.9031	-20774.18
0.1151,0.8849	-20775.92
0.0979,0.9021	-20751.71
0.1059,0.8941	-20794.21
0.0992,0.9008	-20736.11
0.1156,0.8844	-20778.07
0.1018,0.8982	-20762.28
0.1050,0.8950	-20738.61
0.1037,0.8963	-20777.28
0.1091,0.8909	-20762.47
0.1190,0.8810	-20780.95
0.1109,0.8891	-20806.45
0.0991,0.9009	-20740.53
0.0990,0.9010	-20762.61
0.0972,0.9028	-20769.65
0.1080,0.8920	-20777.13
0.1170,0.8830	-20804.68
0.1066,0.8934	-20781.38
0.0979,0.9021	-20796.14
0.0999,0.9001	-20773.48
0.0970,0.9030	-20747.38
0.1088,0.8912	-20775.05
0.1132,0.8868	-20761.14
0.1011,0.8989	-20733.94
0.1138,0.8862	-20794.13
0.1115,0.8885	-20769.08
0.1088,0.8912	-20793.98
0.0960,0.9040	-20736.34
0.1112,0.8888	-20789.82
0.0983,0.9017	-20758.31
0.1036,0.8964	-20777.30
0.1050,0.8950	-20732.19
0.1086,0.8914	-20815.04
0.0988,0.9012	-20729.49
0.1191,0.8809	-20794.98
0.1037,0.8963	-20751.40
0.1049,0.8951	-20770.76
0.1117,0.8883	-20791.91
0.0999,0.9001	-20784.46
0.1072,0.8928	-20749.56
0.1225,0.8775	-20835.26
0.1085,0.8915	-20768.72
0.1027,0.8973	-20766.56
0.1082,0.8918	-20737.06
0.0997,0.9003	-20731.70
0.1128,0.8872	-20781.68
0.1136,0.8864	-20814.66
0.1071,0.8929	-20764.39
0.1112,0.8888	-20771.10
0.1025,0.8975	-20770.92
0.1144,0.8856	-20786.01
0.1174,0.8826	-20816.83
0.1013,0.8987	-20740.50
0.1100,0.8900	-20802.32
0.1037,0.8963	-20785.91
0.1126,0.8874	-20820.87
0.0990,0.9010	-20747.16
0.1123,0.8877	-20818.83
0.0991,0.9009	-20755.99
0.1087,0.8913	-20760.32
0.1029,0.8971	-20820.69
0.0986,0.9014	-20762.69
0.1208,0.8792	-20773.58
0.1121,0.8879	-20771.24
0.1063,0.8937	-20753.71
0.0966,0.9034	-20772.05
0.1148,0.8852	-20784.03
0.1192,0.8808	-20843.01
0.1046,0.8954	-20783.65
0.1139,0.8861	-20771.58
0.1044,0.8956	-20803.03
0.0981,0.9019	-20740.59
0.1045,0.8955	-20740.69
0.1224,0.8776	-20841.16
0.0998,0.9002	-20753.70
0.1122,0.8878	-20771.27
0.1115,0.8885	-20808.51
0.0866,0.9134	-20691.82
0.1171,0.8829	-20748.13
0.1096,0.8904	-20800.25
0.0994,0.9006	-20771.36
0.0955,0.9045	-20770.14
0.1088,0.8912	-20796.08
0.0983,0.9017	-20760.52
0.1084,0.8916	-20745.53
0.1022,0.8978	-20753.56
0.0927,0.9073	-20787.08
0.0958,0.9042	-20752.07
0.1153,0.8847	-20780.03
0.0984,0.9016	-20767.15
0.1192,0.8808	-20793.01
0.1188,0.8812	-20818.97
0.0916,0.9084	-20734.89
0.1073,0.8927	-20751.70
0.1119,0.8881	-20756.71
0.0997,0.9003	-20731.71
0.1113,0.8887	-20781.51
0.1168,0.8832	-20756.11
0.1124,0.8876	-20775.43
0.1101,0.8899	-20743.81
0.1088,0.8912	-20802.39
0.1061,0.8939	-20725.98
0.1077,0.8923	-20747.52
0.1096,0.8904	-20796.06
0.1104,0.8896	-20783.53
0.0987,0.9013	-20767.10
0.1006,0.8994	-20779.93
0.0964,0.9036	-20749.73
0.1058,0.8942	-20766.47
0.1036,0.8964	-20775.14
0.1042,0.8958	-20779.40
0.1024,0.8976	-20742.70
0.0991,0.9009	-20767.03
0.1046,0.8954	-20783.65
0.1014,0.8986	-20753.59
0.0998,0.9002	-20722.91
0.1048,0.8952	-20757.89
0.0943,0.9057	-20736.59
0.1100,0.8900	-20775.14
0.0957,0.9043	-20761.08
0.0961,0.9039	-20720.64
0.0983,0.9017	-20751.66
0.1075,0.8925	-20764.43
0.0932,0.9068	-20759.55
0.1049,0.8951	-20790.06
0.1094,0.8906	-20787.67
0.1150,0.8850	-20806.51
0.1111,0.8889	-20802.29
0.0897,0.9103	-20733.12
0.1004,0.8996	-20779.96
0.1055,0.8945	-20749.37
0.1168,0.8832	-20778.34
0.1160,0.8840	-20800.49
0.1049,0.8951	-20792.20
0.1146,0.8854	-20781.94
0.0988,0.9012	-20749.38
0.1011,0.8989	-20751.42
0.1154,0.8846	-20800.43
0.0954,0.9046	-20725.17
0.1130,0.8870	-20794.06
0.1067,0.8933	-20772.87
0.0965,0.9035	-20765.36
0.0928,0.9072	-20752.86
0.1127,0.8873	-20771.35
0.0986,0.9014	-20773.75
0.1127,0.8873	-20754.85
0.1035,0.8965	-20751.40
0.0997,0.9003	-20762.52
0.1030,0.8970	-20747.06
0.1086,0.8914	-20762.42
0.0928,0.9072	-20752.86
0.1097,0.8903	-20779.30
0.1174,0.8826	-20772.46
0.1069,0.8931	-20779.24
0.0896,0.9104	-20747.03
0.0999,0.9001	-20777.88
0.0965,0.9035	-20751.93
0.1108,0.8892	-20773.13
0.1117,0.8883	-20820.95
0.1061,0.8939	-20775.00
0.0901,0.9099	-20712.18
0.1038,0.8962	-20770.81
0.0982,0.9018	-20756.11
0.1080,0.8920	-20734.90
0.1054,0.8946	-20757.92
0.1018,0.8982	-20764.46
0.1140,0.8860	-20761.35
0.1007,0.8993	-20755.82
0.0976,0.9024	-20753.98
0.1106,0.8894	-20793.96
0.1102,0.8898	-20745.92
0.0978,0.9022	-20725.06
0.1097,0.8903	-20812.80
0.1063,0.8937	-20800.55
0.1049,0.8951	-20757.89
0.1098,0.8902	-20785.59
0.1003,0.8997	-20782.18
0.1044,0.8956	-20760.03
0.0956,0.9044	-20722.90
0.1052,0.8948	-20781.46
0.0931,0.9069	-20739.09
0.1289,0.8711	-20819.28
0.0977,0.9023	-20753.97
0.1195,0.8805	-20801.07
0.1065,0.8935	-20755.86
0.1112,0.8888	-20796.05
0.0944,0.9056	-20752.39
0.1200,0.8800	-20779.24
0.0885,0.9115	-20724.18
0.1054,0.8946	-20802.83
0.1000,0.9000	-20755.88
0.1071,0.8929	-20830.14
0.0928,0.9072	-20746.02
0.1297,0.8703	-20853.83
0.0933,0.9067	-20739.05
0.0999,0.9001	-20740.50
0.1054,0.8946	-20792.13
0.1199,0.8801	-20807.13
0.1057,0.8943	-20728.03
0.1030,0.8970	-20781.70
0.1013,0.8987	-20753.60
0.1189,0.8811	-20800.94
0.1113,0.8887	-20796.05
0.1058,0.8942	-20781.41
0.1150,0.8850	-20792.22
0.1009,0.8991	-20747.05
0.1000,0.9000	-20720.73
0.1081,0.8919	-20775.02
0.0945,0.9055	-20763.67
0.1125,0.8875	-20773.37
0.1093,0.8907	-20762.49
0.1022,0.8978	-20740.52
0.0995,0.9005	-20777.97
0.0999,0.9001	-20727.31
0.0988,0.9012	-20738.34
0.1084,0.8916	-20749.74
0.0999,0.9001	-20766.88
0.1045,0.8955	-20803.00
0.1100,0.8900	-20798.14
0.0922,0.9078	-20769.03
0.0993,0.9007	-20742.73
0.1008,0.8992	-20744.87
0.0999,0.9001	-20718.52
0.1026,0.8974	-20731.87
0.1037,0.8963	-20846.32
0.1006,0.8994	-20744.87
0.1048,0.8952	-20762.18
0.0986,0.9014	-20742.77
0.1032,0.8968	-20766.53
0.1036,0.8964	-20744.93
0.1137,0.8863	-20773.58
0.0988,0.9012	-20778.13
0.1107,0.8893	-20802.30
0.0962,0.9038	-20760.96
0.1041,0.8959	-20744.97
0.1064,0.8936	-20779.26
0.0972,0.9028	-20720.62
0.1035,0.8965	-20766.51
0.0976,0.9024	-20745.08
0.0980,0.9020	-20789.43
0.0972,0.9028	-20740.67
0.1149,0.8851	-20802.42
0.0997,0.9003	-20793.31
0.0998,0.9002	-20766.89
0.1054,0.8946	-20817.80
0.0985,0.9015	-20767.14
0.0981,0.9019	-20776.10
0.0977,0.9023	-20767.31
0.1101,0.8899	-20770.97
0.1069,0.8931	-20785.61
0.1088,0.8912	-20783.47
0.0937,0.9063	-20782.10
0.1035,0.8965	-20839.94
0.1020,0.8980	-20731.81
0.1110,0.8890	-20741.95
0.1172,0.8828	-20814.79
0.1095,0.8905	-20779.29
0.1016,0.8984	-20764.48
0.1110,0.8890	-20791.88
0.1020,0.8980	-20790.55
0.1097,0.8903	-20800.24
0.1085,0.8915	-20779.25
0.1007,0.8993	-20773.34
0.0968,0.9032	-20787.62
0.0913,0.9087	-20746.43
0.1138,0.8862	-20794.13
0.1060,0.8940	-20770.74
0.1064,0.8936	-20819.69
0.0980,0.9020	-20749.48
0.1241,0.8759	-20798.34
0.0967,0.9033	-20727.32
0.1126,0.8874	-20777.52
0.0964,0.9036	-20751.96
0.1038,0.8962	-20764.34
0.1125,0.8875	-20752.71
0.1192,0.8808	-20817.00
0.1047,0.8953	-20755.74
0.1092,0.8908	-20772.98
0.1184,0.8816	-20784.79
0.1014,0.8986	-20784.14
0.1151,0.8849	-20839.15
0.1127,0.8873	-20794.04
0.1056,0.8944	-20787.84
0.1046,0.8954	-20783.65
0.1031,0.8969	-20755.72
0.1198,0.8802	-20795.16
0.1041,0.8959	-20764.33
0.1157,0.8843	-20769.94
0.1082,0.8918	-20770.81
0.1041,0.8959	-20755.73
0.1085,0.8915	-20787.68
0.1003,0.8997	-20801.92
0.1010,0.8990	-20771.10
0.1183,0.8817	-20806.87
0.1019,0.8981	-20729.64
0.1100,0.8900	-20773.05
0.0961,0.9039	-20790.12
0.1021,0.8979	-20736.17
0.1079,0.8921	-20762.34
0.1044,0.8956	-20775.08
0.1097,0.8903	-20810.71
0.1095,0.8905	-20760.43
0.1016,0.8984	-20753.58
0.1166,0.8834	-20841.07
0.1074,0.8926	-20772.89
0.0967,0.9033	-20810.01
0.1016,0.8984	-20742.68
0.1038,0.8962	-20775.12
0.1072,0.8928	-20736.85
0.1181,0.8819	-20849.05
0.1026,0.8974	-20751.39
0.1070,0.8930	-20779.24
0.0964,0.9036	-20751.95
0.0926,0.9074	-20732.37
0.1070,0.8930	-20783.49
0.1136,0.8864	-20775.63
0.1158,0.8842	-20824.86
0.1027,0.8973	-20751.39
0.1061,0.8939	-20757.96
0.0921,0.9079	-20762.20
0.1060,0.8940	-20794.19
0.1115,0.8885	-20775.30
0.1057,0.8943	-20772.88
0.0912,0.9088	-20728.08
0.1047,0.8953	-20764.33
0.0980,0.9020	-20756.14
0.1047,0.8953	-20757.89
0.1234,0.8766	-20819.69
0.1123,0.8877	-20804.35
0.0937,0.9063	-20736.70
0.1114,0.8886	-20810.59
0.0856,0.9144	-20718.10
0.1080,0.8920	-20766.57
0.1181,0.8819	-20794.77
0.1054,0.8946	-20777.16
0.1134,0.8866	-20800.27
0.1239,0.8761	-20835.45
0.0882,0.9118	-20726.58
0.1100,0.8900	-20785.59
0.1114,0.8886	-20771.14
0.1094,0.8906	-20754.12
0.1020,0.8980	-20755.75
0.1077,0.8923	-20796.15
0.0942,0.9058	-20741.12
0.1094,0.8906	-20804.45
0.0966,0.9034	-20736.27
0.1066,0.8934	-20751.61
0.0993,0.9007	-20755.95
0.1067,0.8933	-20755.88
0.1003,0.8997	-20705.40
0.1058,0.8942	-20753.67
0.1103,0.8897	-20779.34
0.1103,0.8897	-20821.10
0.1162,0.8838	-20816.75
0.1057,0.8943	-20768.61
0.1126,0.8874	-20775.46
0.1175,0.8825	-20806.75
0.1183,0.8817	-20776.73
0.1110,0.8890	-20789.81
0.1176,0.8824	-20776.53
0.1133,0.8867	-20806.43
0.1054,0.8946	-20747.22
0.1032,0.8968	-20777.34
0.1043,0.8957	-20755.73
0.0967,0.9033	-20722.85
0.1133,0.8867	-20775.56
0.1108,0.8892	-20823.12
0.0985,0.9015	-20769.34
0.1137,0.8863	-20804.39
0.1062,0.8938	-20770.74
0.1094,0.8906	-20772.99
0.1281,0.8719	-20811.36
0.1060,0.8940	-20757.95
0.1006,0.8994	-20753.64
0.1061,0.8939	-20764.35
0.1183,0.8817	-20814.90
0.1051,0.8949	-20727.91
0.1033,0.8967	-20777.33
0.0928,0.9072	-20736.90
0.1157,0.8843	-20771.98
0.1046,0.8954	-20755.74
0.1145,0.8855	-20800.34
0.1049,0.8951	-20751.46
0.1201,0.8799	-20791.24
0.1000,0.9000	-20758.08
0.1074,0.8926	-20804.65
0.1117,0.8883	-20785.69
0.1229,0.8771	-20831.39
0.1064,0.8936	-20770.74
0.1194,0.8806	-20813.04
0.1092,0.8908	-20751.99
0.1167,0.8833	-20782.37
0.1161,0.8839	-20808.63
0.1165,0.8835	-20820.82
0.1144,0.8856	-20816.71
0.1155,0.8845	-20794.33
0.1094,0.8906	-20789.77
0.1041,0.8959	-20749.27
0.1108,0.8892	-20812.70
0.1084,0.8916	-20747.65
0.1095,0.8905	-20768.81
0.1059,0.8941	-20779.28
0.1174,0.8826	-20794.64
0.1058,0.8942	-20760.07
0.1104,0.8896	-20793.96
0.1130,0.8870	-20816.73
0.1183,0.8817	-20792.81
0.1058,0.8942	-20743.00
0.1094,0.8906	-20783.48
0.0982,0.9018	-20753.89
0.1208,0.8792	-20791.43
0.1103,0.8897	-20777.26
0.1000,0.9000	-20771.26
0.0972,0.9028	-20749.59
0.1067,0.8933	-20772.87
0.0974,0.9026	-20745.11
0.1116,0.8884	-20800.21
0.1032,0.8968	-20744.91
0.1042,0.8958	-20790.16
0.0933,0.9067	-20766.36
0.1119,0.8881	-20762.93
0.1197,0.8803	-20777.17
0.1117,0.8883	-20796.06
0.0952,0.9048	-20770.23
0.1001,0.8999	-20771.24
0.1106,0.8894	-20779.37
0.1136,0.8864	-20790.00
0.0983,0.9017	-20751.66
0.1098,0.8902	-20793.96
0.1208,0.8792	-20813.26
0.1019,0.8981	-20755.75
0.1070,0.8930	-20775.00
0.1123,0.8877	-20787.81
0.1054,0.8946	-20742.94
0.1219,0.8781	-20827.30
0.1195,0.8805	-20781.08
0.1067,0.8933	-20794.12
0.1060,0.8940	-20775.01
0.1098,0.8902	-20773.03
0.1021,0.8979	-20766.61
0.1120,0.8880	-20854.04
0.1171,0.8829	-20808.72
0.0978,0.9022	-20785.05
0.1139,0.8861	-20787.98
0.1227,0.8773	-20827.42
0.0973,0.9027	-20758.48
0.0983,0.9017	-20751.66
0.0892,0.9108	-20714.67
0.1029,0.8971	-20731.90
0.1080,0.8920	-20806.69
0.1095,0.8905	-20785.58
0.1106,0.8894	-20785.62
0.1037,0.8963	-20736.31
0.0959,0.9041	-20734.11
0.1072,0.8928	-20789.84
0.1037,0.8963	-20775.13
0.1123,0.8877	-20775.41
0.0992,0.9008	-20718.46
0.1079,0.8921	-20739.10
0.1137,0.8863	-20738.68
0.1085,0.8915	-20796.10
0.1092,0.8908	-20796.07
0.1001,0.8999	-20747.09
0.0990,0.9010	-20742.75
0.1049,0.8951	-20779.34
0.1191,0.8809	-20796.98
0.0994,0.9006	-20742.72
0.1079,0.8921	-20766.57
0.1096,0.8904	-20762.54
0.1051,0.8949	-20753.62
0.1088,0.8912	-20796.08
0.1176,0.8824	-20784.60
0.0887,0.9113	-20766.02
0.1187,0.8813	-20794.90
0.0959,0.9041	-20765.52
0.1033,0.8967	-20747.07
0.0973,0.9027	-20736.21
0.1209,0.8791	-20785.52
0.0937,0.9063	-20729.90
0.1110,0.8890	-20804.37
0.1006,0.8994	-20762.40
0.1042,0.8958	-20768.64
0.1088,0.8912	-20793.98
0.1070,0.8930	-20789.85
0.1066,0.8934	-20775.00
0.1194,0.8806	-20795.04
0.1109,0.8891	-20800.21
0.1026,0.8974	-20751.39
0.1095,0.8905	-20791.87
0.1082,0.8918	-20766.59
0.0975,0.9025	-20742.87
0.1087,0.8913	-20754.01
0.1098,0.8902	-20785.59
0.0993,0.9007	-20736.11
0.1048,0.8952	-20775.05
0.1051,0.8949	-20753.62
0.1114,0.8886	-20818.90
0.1103,0.8897	-20741.76
0.0903,0.9097	-20737.55
0.0967,0.9033	-20780.97
0.1008,0.8992	-20753.62
0.0975,0.9025	-20711.71
0.1127,0.8873	-20798.17
0.1075,0.8925	-20770.77
0.0918,0.9082	-20762.32
0.1246,0.8754	-20823.86
0.1044,0.8956	-20800.87
0.0938,0.9062	-20761.64
0.1133,0.8867	-20775.57
0.1108,0.8892	-20791.88
0.1033,0.8967	-20790.29
0.1153,0.8847	-20796.34
0.1078,0.8922	-20796.15
0.1032,0.8968	-20770.85
0.1141,0.8859	-20779.81
0.1118,0.8882	-20775.34
0.1104,0.8896	-20754.32
0.0963,0.9037	-20769.88
0.1097,0.8903	-20760.45
0.1025,0.8975	-20762.24
0.1117,0.8883	-20771.17
0.1066,0.8934	-20806.88
0.1167,0.8833	-20778.33
0.1068,0.8932	-20794.11
0.1140,0.8860	-20769.55
0.1051,0.8949	-20798.59
0.0992,0.9008	-20758.18
0.1067,0.8933	-20762.25
0.1100,0.8900	-20789.78
0.0953,0.9047	-20749.94
0.0899,0.9101	-20730.72
0.1104,0.8896	-20789.78
0.0955,0.9045	-20722.91
0.1004,0.8996	-20711.99
0.1068,0.8932	-20808.98
0.1061,0.8939	-20747.30
0.0943,0.9057	-20745.63
0.1144,0.8856	-20826.94
0.1164,0.8836	-20804.59
0.0867,0.9133	-20715.34
0.1172,0.8828	-20822.87
0.1095,0.8905	-20760.42
0.1043,0.8957	-20742.83
0.1091,0.8909	-20770.87
0.0992,0.9008	-20733.91
0.1019,0.8981	-20762.28
0.1075,0.8925	-20753.84
0.1084,0.8916	-20779.25
0.0971,0.9029	-20778.60
0.1163,0.8837	-20780.25
0.1020,0.8980	-20753.57
0.1089,0.8911	-20789.77
0.1154,0.8846	-20802.46
0.1049,0.8951	-20794.34
0.1009,0.8991	-20773.30
0.1061,0.8939	-20760.08
0.1037,0.8963	-20738.46
0.0954,0.9046	-20761.16
0.0970,0.9030	-20738.47
0.1040,0.8960	-20820.33
0.0982,0.9018	-20760.54
0.1006,0.8994	-20729.54
0.1131,0.8869	-20738.46
0.1043,0.8957	-20734.23
0.1036,0.8964	-20796.72
0.1096,0.8904	-20789.77
0.1060,0.8940	-20781.40
0.1033,0.8967	-20803.26
0.1196,0.8804	-20781.14
0.1144,0.8856	-20810.57
0.1109,0.8891	-20781.48
0.1026,0.8974	-20783.92
0.1039,0.8961	-20826.83
0.1058,0.8942	-20770.74
0.1170,0.8830	-20776.36
0.1065,0.8935	-20766.49
0.1091,0.8909	-20787.67
0.0943,0.9057	-20752.43
0.1085,0.8915	-20772.94
0.0993,0.9007	-20811.07
0.1127,0.8873	-20777.53
0.0996,0.9004	-20764.73
0.1190,0.8810	-20774.95
0.1052,0.8948	-20764.33
0.1054,0.8946	-20734.39
0.1141,0.8859	-20804.41
0.1157,0.8843	-20794.36
0.1149,0.8851	-20792.20
0.1031,0.8969	-20773.03
0.1067,0.8933	-20794.12
0.1088,0.8912	-20804.50
0.1061,0.8939	-20772.87
0.1163,0.8837	-20814.73
0.0995,0.9005	-20771.36
0.1053,0.8947	-20742.93
0.1115,0.8885	-20820.96
0.1037,0.8963	-20738.47
0.1188,0.8812	-20802.93
0.1080,0.8920	-20756.02
0.0977,0.9023	-20773.96
0.1139,0.8861	-20753.11
0.1062,0.8938	-20770.74
0.0917,0.9083	-20723.39
0.1137,0.8863	-20806.44
0.1051,0.8949	-20809.30
0.0959,0.9041	-20747.58
0.1087,0.8913	-20783.47
0.1158,0.8842	-20822.83
0.1150,0.8850	-20798.34
0.1039,0.8961	-20766.50
0.1219,0.8781	-20768.08
0.1068,0.8932	-20802.61
0.1089,0.8911	-20796.08
0.1051,0.8949	-20787.89
0.1146,0.8854	-20790.13
0.1088,0.8912	-20817.12
0.1249,0.8751	-20785.01
0.1164,0.8836	-20776.22
0.1210,0.8790	-20823.22
0.1071,0.8929	-20745.30
0.1059,0.8941	-20751.54
0.1234,0.8766	-20800.09
0.1098,0.8902	-20752.11
0.1005,0.8995	-20790.90
0.1114,0.8886	-20783.59
0.1041,0.8959	-20788.02
0.0943,0.9057	-20756.96
0.1140,0.8860	-20802.35
0.1062,0.8938	-20745.18
0.1127,0.8873	-20804.36
0.1082,0.8918	-20756.04
0.1142,0.8858	-20749.10
0.0991,0.9009	-20749.36
0.1132,0.8868	-20767.32
0.1072,0.8928	-20817.39
0.1103,0.8897	-20798.13
0.0955,0.9045	-20776.87
0.1054,0.8946	-20738.67
0.1165,0.8835	-20806.64
0.0983,0.9017	-20736.14
0.1121,0.8879	-20806.42
0.1034,0.8966	-20762.20
0.1064,0.8936	-20802.66
0.1107,0.8893	-20766.87
0.0992,0.9008	-20769.21
0.1050,0.8950	-20796.47
0.1064,0.8936	-20753.72
0.0959,0.9041	-20731.86
0.1034,0.8966	-20744.92
0.1040,0.8960	-20762.18
0.0999,0.9001	-20791.08
0.1006,0.8994	-20742.68
0.1085,0.8915	-20787.68
0.1078,0.8922	-20777.13
0.0963,0.9037	-20751.97
0.0990,0.9010	-20767.03
0.1024,0.8976	-20749.22
0.1064,0.8936	-20760.11
0.1155,0.8845	-20782.12
0.1197,0.8803	-20813.08
0.0913,0.9087	-20774.00
0.0981,0.9019	-20784.96
0.1277,0.8723	-20851.57
0.1104,0.8896	-20814.83
0.1055,0.8945	-20789.98
0.1071,0.8929	-20762.27
0.1025,0.8975	-20734.03
0.1106,0.8894	-20779.36
0.1282,0.8718	-20799.87
0.1042,0.8958	-20770.79
0.1208,0.8792	-20809.29
0.1018,0.8982	-20744.87
0.1006,0.8994	-20782.12
0.1042,0.8958	-20757.88
0.1067,0.8933	-20798.37
0.1168,0.8832	-20768.23
0.0998,0.9002	-20727.31
0.1106,0.8894	-20771.03
0.0925,0.9075	-20739.23
0.1036,0.8964	-20751.40
0.1026,0.8974	-20757.90
0.1164,0.8836	-20755.94
0.1105,0.8895	-20802.30
0.1030,0.8970	-20781.69
0.1185,0.8815	-20812.91
0.1011,0.8989	-20768.90
0.0952,0.9048	-20736.44
0.0957,0.9043	-20727.39
0.1116,0.8884	-20810.58
0.1038,0.8962	-20781.59
0.1150,0.8850	-20796.30
0.1145,0.8855	-20794.20
0.0976,0.9024	-20751.75
0.1079,0.8921	-20772.90
0.1111,0.8889	-20775.25
0.0965,0.9035	-20767.59
0.1168,0.8832	-20776.31
0.1097,0.8903	-20766.74
0.1089,0.8911	-20779.26
0.1211,0.8789	-20817.28
0.1150,0.8850	-20767.74
0.1040,0.8960	-20800.95
0.1031,0.8969	-20781.68
0.1079,0.8921	-20751.79
0.1004,0.8996	-20738.30
0.1018,0.8982	-20766.64
0.1041,0.8959	-20736.36
0.0985,0.9015	-20747.21
0.1008,0.8992	-20747.06
0.1135,0.8865	-20804.38
0.0991,0.9009	-20720.66
0.1150,0.8850	-20769.78
0.0994,0.9006	-20760.35
0.1168,0.8832	-20798.58
0.0985,0.9015	-20760.49
0.1077,0.8923	-20796.16
0.1042,0.8958	-20755.73
0.1110,0.8890	-20781.48
0.1119,0.8881	-20823.00
0.1072,0.8928	-20804.67
0.1206,0.8794	-20801.32
0.1042,0.8958	-20751.42
0.1012,0.8988	-20751.42
0.1078,0.8922	-20794.03
0.1074,0.8926	-20785.59
0.1060,0.8940	-20775.01
0.1113,0.8887	-20789.82
0.0997,0.9003	-20760.31
0.1082,0.8918	-20783.46
0.1065,0.8935	-20726.08
0.1016,0.8984	-20760.12
0.1006,0.8994	-20771.17
0.0949,0.9051	-20799.66
0.0934,0.9066	-20707.21
0.1023,0.8977	-20753.56
0.0973,0.9027	-20762.95
0.0989,0.9011	-20705.18
0.1035,0.8965	-20783.78
0.0956,0.9044	-20770.10
0.0978,0.9022	-20736.17
0.1036,0.8964	-20805.34
0.0981,0.9019	-20784.97
0.1107,0.8893	-20764.79
0.1037,0.8963	-20766.50
0.0976,0.9024	-20751.76
0.0966,0.9034	-20745.21
0.0924,0.9076	-20730.13
0.0980,0.9020	-20731.72
0.1122,0.8878	-20814.70
0.1092,0.8908	-20781.37
0.0933,0.9067	-20741.32
0.0967,0.9033	-20734.03
0.0863,0.9137	-20734.37
0.1016,0.8984	-20777.55
0.1079,0.8921	-20808.82
0.0979,0.9021	-20762.82
0.1086,0.8914	-20781.36
0.1055,0.8945	-20757.92
0.0885,0.9115	-20714.85
0.1083,0.8917	-20768.71
0.1085,0.8915	-20777.15
0.1091,0.8909	-20787.67
0.1062,0.8938	-20792.04
0.1030,0.8970	-20799.02
0.1083,0.8917	-20791.90
0.1069,0.8931	-20796.22
0.0956,0.9044	-20772.35
0.1137,0.8863	-20779.74
0.1106,0.8894	-20818.98
0.0952,0.9048	-20747.71
0.1022,0.8978	-20773.12
0.1096,0.8904	-20762.54
0.0947,0.9053	-20768.13
0.1208,0.8792	-20771.57
0.1080,0.8920	-20802.46
0.1004,0.8996	-20766.80
0.1063,0.8937	-20751.58
0.1191,0.8809	-20815.00
0.1139,0.8861	-20787.98
0.0952,0.9048	-20758.96
0.0939,0.9061	-20759.33
0.0976,0.9024	-20796.24
0.1206,0.8794	-20787.40
0.1140,0.8860	-20794.15
0.1187,0.8813	-20792.89
0.1017,0.8983	-20766.65
0.1004,0.8996	-20762.42
0.1191,0.8809	-20776.96
0.1177,0.8823	-20774.54
0.1140,0.8860	-20794.15
0.1053,0.8947	-20781.45
0.1127,0.8873	-20769.28
0.1117,0.8883	-20783.62
0.1167,0.8833	-20792.48
0.1105,0.8895	-20802.30
0.1170,0.8830	-20792.54
0.1037,0.8963	-20785.91
0.0993,0.9007	-20747.14
0.1231,0.8769	-20798.04
0.1084,0.8916	-20812.97
0.1037,0.8963	-20764.35
0.1102,0.8898	-20768.89
0.0997,0.9003	-20771.32
0.1191,0.8809	-20762.98
0.1024,0.8976	-20747.05
0.1016,0.8984	-20725.24
0.1040,0.8960	-20749.27
0.1062,0.8938	-20734.54
0.1085,0.8915	-20804.52
0.1168,0.8832	-20794.54
0.1106,0.8894	-20804.38
0.1012,0.8988	-20744.86
0.1133,0.8867	-20792.03
0.1121,0.8879	-20816.77
0.0984,0.9016	-20742.78
0.1061,0.8939	-20796.32
0.1094,0.8906	-20838.00
0.0967,0.9033	-20751.90
0.1073,0.8927	-20796.19
0.1108,0.8892	-20764.80
0.1017,0.8983	-20710.01
0.1155,0.8845	-20808.58
0.0985,0.9015	-20762.71
0.1117,0.8883	-20764.97
0.1199,0.8801	-20767.27
0.1030,0.8970	-20777.36
0.1119,0.8881	-20769.14
0.1225,0.8775	-20801.78
0.1074,0.8926	-20785.59
0.1146,0.8854	-20798.31
0.1049,0.8951	-20755.75
0.1124,0.8876	-20796.09
0.1006,0.8994	-20744.88
0.1065,0.8935	-20775.00
0.1151,0.8849	-20818.75
0.1101,0.8899	-20764.70
0.1117,0.8883	-20837.53
0.0995,0.9005	-20740.51
0.0902,0.9098	-20742.20
0.1082,0.8918	-20812.99
0.1048,0.8952	-20775.05
0.1025,0.8975	-20777.43
0.1154,0.8846	-20792.28
0.1168,0.8832	-20808.69
0.0975,0.9025	-20765.12
0.0962,0.9038	-20810.24
0.0999,0.9001	-20744.90
0.1140,0.8860	-20773.65
0.1261,0.8739	-20812.61
0.1124,0.8876	-20789.89
0.1088,0.8912	-20737.20
0.1001,0.8999	-20775.63
0.1072,0.8928	-20783.48
0.0995,0.9005	-20744.92
0.1230,0.8770	-20825.50
0.1068,0.8932	-20753.76
0.1108,0.8892	-20783.55
0.1168,0.8832	-20786.43
0.1202,0.8798	-20819.14
0.1042,0.8958	-20772.94
0.1063,0.8937	-20779.26
0.1130,0.8870	-20816.73
0.1162,0.8838	-20766.04
0.1091,0.8909	-20745.67
0.1109,0.8891	-20779.39
0.0950,0.9050	-20745.50
0.1057,0.8943	-20766.47
0.1059,0.8941	-20764.34
0.1231,0.8769	-20835.34
0.1043,0.8957	-20764.33
0.1111,0.8889	-20821.01
0.1067,0.8933	-20738.88
0.1080,0.8920	-20762.35
0.1055,0.8945	-20751.51
0.1006,0.8994	-20744.87
0.1031,0.8969	-20757.88
0.1004,0.8996	-20731.72
0.1226,0.8774	-20817.56
0.1010,0.8990	-20773.28
0.1056,0.8944	-20785.70
0.1075,0.8925	-20775.01
0.1077,0.8923	-20781.35
0.0881,0.9119	-20724.28
0.1022,0.8978	-20801.37
0.1008,0.8992	-20755.81
0.0999,0.9001	-20786.68
0.1035,0.8965	-20781.63
0.1087,0.8913	-20756.11
0.1079,0.8921	-20753.89
0.1012,0.8988	-20790.72
0.1135,0.8865	-20808.49
0.1079,0.8921	-20762.34
0.1095,0.8905	-20768.82
0.0980,0.9020	-20765.01
0.1149,0.8851	-20804.46
0.0997,0.9003	-20777.91
0.1248,0.8752	-20761.56
0.0967,0.9033	-20720.62
0.0990,0.9010	-20780.29
0.1135,0.8865	-20800.27
0.1173,0.8827	-20806.73
0.1047,0.8953	-20740.72
0.1231,0.8769	-20794.10
0.0976,0.9024	-20769.55
0.0992,0.9008	-20738.32
0.1042,0.8958	-20770.79
0.1025,0.8975	-20770.92
0.1142,0.8858	-20783.94
0.1092,0.8908	-20785.57
0.1076,0.8924	-20739.05
0.0999,0.9001	-20760.29
0.1112,0.8888	-20823.07
0.1065,0.8935	-20777.13
0.1104,0.8896	-20762.66
0.1157,0.8843	-20765.88
0.1107,0.8893	-20789.79
0.1089,0.8911	-20751.94
0.1094,0.8906	-20781.38
0.1040,0.8960	-20770.80
0.1105,0.8895	-20758.51
0.1068,0.8932	-20772.87
0.0998,0.9002	-20744.91
0.1022,0.8978	-20755.74
0.1140,0.8860	-20804.41
0.1133,0.8867	-20787.91
0.1083,0.8917	-20806.65
0.1132,0.8868	-20808.49
0.0991,0.9009	-20764.81
0.0987,0.9013	-20787.00
0.1167,0.8833	-20800.59
0.1088,0.8912	-20745.62
0.0984,0.9016	-20776.00
0.1021,0.8979	-20747.04
0.1007,0.8993	-20768.96
0.0956,0.9044	-20781.32
0.1070,0.8930	-20794.09
0.1082,0.8918	-20787.68
0.0972,0.9028	-20789.70
0.1066,0.8934	-20772.87
0.1032,0.8968	-20773.02
0.1106,0.8894	-20802.30
0.1059,0.8941	-20772.88
0.1138,0.8862	-20806.45
0.1064,0.8936	-20792.03
0.0964,0.9036	-20738.53
0.1177,0.8823	-20790.65
0.1086,0.8914	-20770.84
0.1105,0.8895	-20762.68
0.1108,0.8892	-20810.62
0.1142,0.8858	-20767.54
0.1048,0.8952	-20790.07
0.1169,0.8831	-20800.62
0.1152,0.8848	-20806.52
0.1038,0.8962	-20725.55
0.1047,0.8953	-20762.18
0.1043,0.8957	-20753.58
0.1222,0.8778	-20856.92
0.1015,0.8985	-20723.06
0.1134,0.8866	-20771.47
0.1091,0.8909	-20741.48
0.0995,0.9005	-20771.35
0.1114,0.8886	-20773.22
0.1111,0.8889	-20769.02
0.1020,0.8980	-20710.07
0.0997,0.9003	-20764.72
0.1078,0.8922	-20760.22
0.0929,0.9071	-20727.74
0.1031,0.8969	-20775.19
0.1159,0.8841	-20802.52
0.1103,0.8897	-20781.43
0.0939,0.9061	-20752.54
0.1075,0.8925	-20787.71
0.0928,0.9072	-20746.00
0.1067,0.8933	-20796.25
0.1050,0.8950	-20747.18
0.0981,0.9019	-20767.21
0.1004,0.8996	-20744.88
0.0949,0.9051	-20779.32
0.1024,0.8976	-20779.61
0.1146,0.8854	-20800.35
0.1056,0.8944	-20794.25
0.1032,0.8968	-20723.29
0.1097,0.8903	-20754.17
0.1119,0.8881	-20777.42
0.1046,0.8954	-20785.80
0.1050,0.8950	-20785.76
0.1122,0.8878	-20748.51
0.1055,0.8945	-20772.88
0.1129,0.8871	-20787.88
0.1195,0.8805	-20793.09
0.1004,0.8996	-20747.07
0.1199,0.8801	-20803.14
0.1163,0.8837	-20800.53
0.0931,0.9069	-20739.09
0.1047,0.8953	-20766.47
0.1093,0.8907	-20735.24
0.1001,0.8999	-20729.52
0.1108,0.8892	-20821.03
0.1125,0.8875	-20812.62
0.1087,0.8913	-20802.40
0.1130,0.8870	-20756.98
0.1049,0.8951	-20787.92
0.0992,0.9008	-20802.29
0.1031,0.8969	-20794.66
0.1090,0.8910	-20754.06
0.1071,0.8929	-20745.31
0.0999,0.9001	-20755.89
0.1084,0.8916	-20781.36
0.1190,0.8810	-20792.95
0.1087,0.8913	-20775.05
0.1065,0.8935	-20743.09
0.1021,0.8979	-20747.04
0.0992,0.9008	-20731.70
0.1133,0.8867	-20808.49
0.0996,0.9004	-20738.31
0.1087,0.8913	-20815.03
0.1084,0.8916	-20760.28
0.1108,0.8892	-20752.32
0.0988,0.9012	-20767.07
0.1081,0.8919	-20753.92
0.1145,0.8855	-20800.34
0.1081,0.8919	-20796.13
0.1107,0.8893	-20764.79
0.1136,0.8864	-20750.97
0.1085,0.8915	-20772.93
0.1038,0.8962	-20744.94
0.1077,0.8923	-20772.90
0.1109,0.8891	-20791.88
0.0980,0.9020	-20749.48
0.1137,0.8863	-20802.34
0.1021,0.8979	-20764.44
0.1160,0.8840	-20772.06
0.1038,0.8962	-20760.03
0.1161,0.8839	-20808.62
0.0951,0.9049	-20704.92
0.0990,0.9010	-20773.67
0.1162,0.8838	-20778.21
0.0982,0.9018	-20731.72
0.1068,0.8932	-20785.62
0.1179,0.8821	-20808.82
0.1002,0.8998	-20753.66
0.1041,0.8959	-20772.95
0.1084,0.8916	-20772.93
0.1092,0.8908	-20751.99
0.1073,0.8927	-20789.83
0.1094,0.8906	-20796.06
0.1104,0.8896	-20789.78
0.1017,0.8983	-20775.36
0.1115,0.8885	-20742.08
0.1036,0.8964	-20762.19
0.0942,0.9058	-20729.82
0.1109,0.8891	-20804.37
0.1065,0.8935	-20768.62
0.0938,0.9062	-20772.97
0.1005,0.8995	-20736.11
0.1076,0.8924	-20787.70
0.0911,0.9089	-20758.03
0.1166,0.8834	-20814.75
0.1173,0.8827	-20826.91
0.1010,0.8990	-20733.94
0.1030,0.8970	-20731.91
0.1016,0.8984	-20762.30
0.1004,0.8996	-20773.38
0.1115,0.8885	-20791.91
0.1078,0.8922	-20764.44
0.1110,0.8890	-20752.37
0.1106,0.8894	-20802.30
0.0960,0.9040	-20767.74
0.1002,0.8998	-20762.45
0.1080,0.8920	-20777.13
0.1054,0.8946	-20770.75
0.0987,0.9013	-20725.07
0.0951,0.9049	-20763.50
0.1138,0.8862	-20796.18
0.0950,0.9050	-20738.73
0.0961,0.9039	-20740.81
0.1074,0.8926	-20791.94
0.1074,0.8926	-20751.71
0.0943,0.9057	-20763.74
0.1110,0.8890	-20791.89
0.1072,0.8928	-20734.72
0.1307,0.8693	-20791.50
0.1192,0.8808	-20791.01
0.1135,0.8865	-20812.60
0.1102,0.8898	-20787.69
0.1193,0.8807	-20803.03
0.1159,0.8841	-20786.25
0.1175,0.8825	-20822.88
0.1256,0.8744	-20847.39
0.1092,0.8908	-20770.88
0.1058,0.8942	-20768.61
0.1106,0.8894	-20808.55
0.1114,0.8886	-20723.36
0.1061,0.8939	-20740.90
0.1110,0.8890	-20789.81
0.0996,0.9004	-20733.91
0.1227,0.8773	-20837.26
0.1119,0.8881	-20771.20
0.1066,0.8934	-20738.85
0.1100,0.8900	-20791.87
0.1172,0.8828	-20818.83
0.0960,0.9040	-20716.16
0.0991,0.9009	-20753.78
0.1189,0.8811	-20828.99
0.0990,0.9010	-20773.65
0.1042,0.8958	-20790.15
0.1064,0.8936	-20779.26
0.1031,0.8969	-20820.63
0.1108,0.8892	-20764.80
0.1043,0.8957	-20796.59
0.1113,0.8887	-20771.12
0.1049,0.8951	-20805.05
0.1088,0.8912	-20800.29
0.1022,0.8978	-20770.95
0.1115,0.8885	-20769.08
0.1099,0.8901	-20798.14
0.1098,0.8902	-20802.33
0.1092,0.8908	-20787.67
0.1055,0.8945	-20766.47
0.1035,0.8965	-20760.04
0.1155,0.8845	-20806.54
0.1016,0.8984	-20771.02
0.1114,0.8886	-20760.75
0.1116,0.8884	-20789.83
0.1105,0.8895	-20796.04
0.1040,0.8960	-20770.80
0.1094,0.8906	-20789.77
0.1016,0.8984	-20808.08
0.1017,0.8983	-20768.83
0.0937,0.9063	-20725.35
0.1128,0.8872	-20794.05
0.1294,0.8706	-20832.80
0.1014,0.8986	-20738.32
0.1051,0.8949	-20787.89
0.1063,0.8937	-20736.67
0.1004,0.8996	-20819.42
0.1016,0.8984	-20760.12
0.1186,0.8814	-20764.77
0.1127,0.8873	-20769.28
0.1022,0.8978	-20751.39
0.0990,0.9010	-20742.74
0.1068,0.8932	-20732.53
0.1118,0.8882	-20800.21
0.1113,0.8887	-20779.43
0.1040,0.8960	-20777.25
0.1026,0.8974	-20742.71
0.1204,0.8796	-20757.51
0.0994,0.9006	-20773.58
0.1159,0.8841	-20782.21
0.1101,0.8899	-20785.60
0.1134,0.8866	-20787.92
0.1058,0.8942	-20740.86
0.1051,0.8949	-20794.31
0.1093,0.8907	-20779.28
0.1248,0.8752	-20804.43
0.1101,0.8899	-20754.26
0.1082,0.8918	-20796.12
0.1101,0.8899	-20770.97
0.1085,0.8915	-20785.57
0.0960,0.9040	-20796.90
0.1148,0.8852	-20828.97
0.1081,0.8919	-20760.25
0.0993,0.9007	-20753.75
0.1142,0.8858	-20814.66
0.1048,0.8952	-20781.48
0.1149,0.8851	-20798.33
0.1046,0.8954	-20792.24
0.1141,0.8859	-20816.71
0.1109,0.8891	-20779.40
0.0947,0.9053	-20736.52
0.1114,0.8886	-20783.60
0.1016,0.8984	-20747.04
0.1015,0.8985	-20760.13
0.1209,0.8791	-20811.29
0.1058,0.8942	-20789.95
0.1072,0.8928	-20789.84
0.1084,0.8916	-20829.82
0.0958,0.9042	-20707.18
0.0949,0.9051	-20754.52
0.1084,0.8916	-20779.25
0.1149,0.8851	-20771.79
0.1049,0.8951	-20800.77
0.1030,0.8970	-20766.54
0.1024,0.8976	-20736.19
0.1102,0.8898	-20802.31
0.1016,0.8984	-20742.68
0.1190,0.8810	-20792.97
0.1134,0.8866	-20837.28
0.1027,0.8973	-20747.05
0.1096,0.8904	-20749.98
0.1113,0.8887	-20789.82
0.1019,0.8981	-20807.99
0.1009,0.8991	-20718.62
0.1211,0.8789	-20795.47
0.1002,0.8998	-20729.52
0.1083,0.8917	-20772.92
0.1161,0.8839	-20784.27
0.1121,0.8879	-20787.79
0.1061,0.8939	-20766.48
0.1082,0.8918	-20749.72
0.1037,0.8963	-20751.41
0.0994,0.9006	-20749.34
0.1163,0.8837	-20794.44
0.0918,0.9082	-20732.55
0.1010,0.8990	-20755.80
0.1081,0.8919	-20779.24
0.0903,0.9097	-20721.38
0.1110,0.8890	-20752.35
0.1053,0.8947	-20796.43
0.1017,0.8983	-20781.89
0.1035,0.8965	-20770.83
0.1119,0.8881	-20785.71
0.0912,0.9088	-20785.56
0.1010,0.8990	-20786.40
0.1013,0.8987	-20729.59
0.1145,0.8855	-20794.20
0.1193,0.8807	-20835.01
0.1237,0.8763	-20804.08
0.0844,0.9156	-20718.55
0.1124,0.8876	-20779.55
0.0940,0.9060	-20759.29
0.1000,0.9000	-20780.04
0.1035,0.8965	-20779.46
0.1169,0.8831	-20812.75
0.0901,0.9099	-20712.18
0.1044,0.8956	-20775.08
0.0914,0.9086	-20709.68
0.0995,0.9005	-20751.52
0.0947,0.9053	-20725.24
0.1239,0.8761	-20806.11
0.1048,0.8952	-20751.46
0.1051,0.8949	-20764.33
0.0928,0.9072	-20761.96
0.1115,0.8885	-20802.28
0.1069,0.8931	-20802.60
0.1042,0.8958	-20753.58
0.1070,0.8930	-20787.73
0.1043,0.8957	-20755.73
0.0883,0.9117	-20770.93
0.1234,0.8766	-20837.34
0.1097,0.8903	-20754.18
0.1130,0.8870	-20779.64
0.1076,0.8924	-20755.97
0.1024,0.8976	-20773.10
0.1051,0.8949	-20772.89
0.0946,0.9054	-20759.12
0.0979,0.9021	-20749.49
0.0941,0.9059	-20777.37
0.1192,0.8808	-20861.01
0.1129,0.8871	-20781.68
0.1031,0.8969	-20755.72
0.1065,0.8935	-20751.60
0.1076,0.8924	-20730.58
0.1006,0.8994	-20771.16
0.1225,0.8775	-20788.01
0.1012,0.8988	-20781.99
0.1097,0.8903	-20773.02
0.0987,0.9013	-20764.87
0.1055,0.8945	-20796.39
0.1168,0.8832	-20786.44
0.1201,0.8799	-20799.21
0.0966,0.9034	-20758.63
0.1068,0.8932	-20770.75
0.0972,0.9028	-20751.82
0.1047,0.8953	-20755.74
0.1136,0.8864	-20796.17
0.1112,0.8888	-20771.11
0.1145,0.8855	-20781.93
0.1088,0.8912	-20783.47
0.0963,0.9037	-20756.46
0.0982,0.9018	-20738.37
0.1066,0.8934	-20757.99
0.1109,0.8891	-20766.90
0.1081,0.8919	-20758.14
